File: Data/LLDPE/LLDPE2_Column 1_20211230_113442.csv
***Scan Config Information***,,,,,,,***Reference Scan Information***,,,,,,,,
Scan Config Name:,Column 1,,,,,,Scan Config Name:,Built-in Factory Reference,,,,,,
Scan Config Type:,Slew,Num Section:,1,,,,Scan Config Type:,Slew,Num Section:,1,,,,,
Section Config Type:,Column,,,,,,Section Config Type:,Column,,,,,,,
Start Wavelength (nm):,900,,,,,,Start Wavelength (nm):,900.0,,,,,,
End Wavelength (nm):,1700,,,,,,End Wavelength (nm):,1700.0,,,,,,
Pattern Width (nm):,7.03,,,,,,Pattern Width (nm):,7.03,,,,,,,
Exposure (ms):,0.635,,,,,,Exposure (ms):,0.635,,,,,,,
Digital Resolution:,228,,,,,,Digital Resolution:,228,,,,,,,
Num Repeats:,6,,,,,,Num Repeats:,30,,,,,,,
PGA Gain:,64,,,,,,PGA Gain:,64,,,,,,
System Temp (C):,28.97,,,,,,System Temp (C):,24.17,,,,,,,
Humidity (%):,36.76,,,,,,Humidity (%):,30.0,,,,,,
Battery Capacity (%):,55,,,,,,Lamp Intensity:,2449,,,,,,,
Lamp Intensity:,2588,,,,,,Data Date-Time:,19/12/12T12:44:54,,,,,,
Data Date-Time:,18/1/1T7:14:1,,,,,,,,,,,,,,
Total Measurement Time in sec:,5.251,,,,,,,,,,,,,
***General Information***,,,,,,,***Calibration Coefficients***,,,,,,,,
Model Name:,NIR-S-G1,,,,,,Shift Vector Coefficients:,-8.44101,0.0554567,-8.45244e-05,,,,,
Serial Number:,947R055,95UB122GC0A947R055,,,,,Pixel to Wavelength Coefficients:,1795.87,-0.92014,-0.00023961,,,,,
APP Version:,2.16.7,,,,,,,,,,,,,
TIVA Version:,2.4.4,,,,,,***Lamp Usage * **,,,,,,,,
UUID:,de:67:c:88:67:2c:2d:21,,,,,,Total Time(HH:MM:SS):,13min 40sec ,,,,,,,
Main Board Version:,D,,,,,,***Device/Error Status***,,,,,,,,
Detector Board Version:,B,,,,,,Device Status:,0x00000031,,,,,,
,,,,,,,Error status:,0x00000000,Error Code:,0x00000000000000000000000000000000,,,,,
,,,,,,,,,Error Details:,Not Found,,,,,
***Scan Data***,,,,,,,,,,,,,,,
Wavelength (nm),Absorbance (AU),Reference Signal (unitless),Sample Signal (unitless)
901.841,1.32776,99968.0,4700
905.754,1.34139,108993.0,4966
909.663,1.33529,118185.0,5461
913.568,1.33044,129285.0,6041
917.469,1.34602,143347.0,6462
921.365,1.36463,160437.0,6929
925.257,1.36018,180387.0,7871
929.144,1.35825,201426.0,8828
933.028,1.34206,220694.0,10040
936.906,1.33443,237501.0,10996
942.072,1.34331,256956.0,11656
945.94,1.31914,270636.0,12979
949.805,1.35048,283621.0,12655
953.665,1.34478,296982.0,13426
957.521,1.33427,310733.0,14392
961.373,1.33721,324587.0,14932
965.22,1.34204,339205.0,15432
969.063,1.32546,353669.0,16716
972.902,1.325647,368253.0,17398
976.736,1.33032,382531.0,17879
981.842,1.33279,399901.0,18585
985.666,1.33746,411528.0,18921
989.486,1.3345,422199.0,19544
993.302,1.336409,431172.0,19872
997.113,1.33714,438051.0,20155
1000.92,1.33305,444216.0,20632
1004.72,1.333333,449307.0,20855
1008.52,1.34293,453601.0,20594
1012.32,1.33374,456801.0,21183
1016.11,1.34637,459312.0,20689
1021.15,1.33627,461643.0,21283
1024.93,1.33621,463069.0,21352
1028.71,1.34006,463868.0,21200
1032.48,1.33948,464326.0,21249
1036.24,1.34382,466001.0,21114
1040.01,1.34714,466870.0,20992
1043.77,1.35187,467033.0,20772
1047.52,1.34145,467045.0,21277
1051.27,1.34339,467467.0,21201
1055.01,1.34766,467627.0,21001
1060,1.34906,468351.0,20966
1063.74,1.35368,469050.0,20775
1067.47,1.35076,469880.0,20952
1071.19,1.35415,471228.0,20849
1074.92,1.34514,472558.0,21346
1078.63,1.35215,474087.0,21072
1082.35,1.34842,476569.0,21365
1086.06,1.350528,479445.0,21390
1089.76,1.34743,481756.0,21647
1093.46,1.34505,485147.0,21919
1098.39,1.35687,489755.0,21533
1102.08,1.35644,493535.0,21721
1105.77,1.35299,497426.0,22067
1109.45,1.35662,501308.0,22054
1113.13,1.35235,505725.0,22468
1116.8,1.35938,509421.0,22269
1120.47,1.35957,513217.0,22425
1124.13,1.3531,517470.0,22950
1127.79,1.36093,521690.0,22724
1131.45,1.35877,526099.0,23030
1136.32,1.36333,531329.0,23016
1139.96,1.36472,535549.0,23125
1143.61,1.36412,539808.0,23341
1147.24,1.37532,543900.0,22919
1150.88,1.3811,547908.0,22783
1154.5,1.38057,552170.0,22988
1158.13,1.38109,556773.0,23152
1161.75,1.38816,561098.0,22955
1165.36,1.39269,565898.0,22911
1168.98,1.40811,571300.0,22323
1172.58,1.40669,576602.0,22604
1177.39,1.41397,584320.0,22526
1180.98,1.42212,589396.0,22299
1184.58,1.428411,596143.0,22230
1188.16,1.43976,602955.0,21904
1191.75,1.43978,609704.0,22148
1195.33,1.46051,617215.0,21376
1198.9,1.46983,624471.0,21168
1202.48,1.4916,632472.0,20391
1206.04,1.50874,640381.0,19847
1209.61,1.525,648161.0,19350
1214.35,1.52581,659999.0,19667
1217.9,1.52621,668609.0,19905
1221.45,1.52282,677405.0,20325
1224.99,1.485692,686281.0,22429
1228.53,1.46888,695317.0,23621
1232.07,1.46102,704063.0,24355
1235.6,1.44284,713007.0,25719
1239.13,1.432111,721330.0,26670
1242.65,1.42469,730030.0,27457
1246.17,1.41723,737591.0,28222
1250.85,1.41495,746809.0,28725
1254.36,1.41115,753336.0,29231
1257.86,1.41023,759907.0,29548
1261.36,1.4077,766538.0,29980
1264.86,1.40966,774802.0,30167
1268.35,1.40374,784025.0,30945
1271.83,1.40077,794336.0,31567
1275.32,1.40976,804198.0,31304
1278.79,1.39978,813836.0,32416
1282.27,1.40324,823595.0,32544
1286.89,1.40471,834533.0,32865
1290.36,1.40552,842581.0,33120
1293.81,1.40802,849301.0,33193
1297.27,1.40271,856026.0,33867
1300.72,1.39924,862498.0,34397
1304.17,1.40345,868068.0,34285
1307.61,1.407266,872869.0,34173
1311.05,1.40578,877616.0,34477
1314.48,1.41045,881872.0,34273
1317.91,1.408411,885520.0,34577
1322.47,1.40393,888917.0,35070
1325.89,1.40704,891687.0,34928
1329.31,1.4055,894001.0,35143
1332.72,1.406481,895438.0,35120
1336.12,1.409955,896641.0,34887
1339.52,1.413122,897974.0,34685
1342.92,1.40975,898777.0,34987
1346.31,1.412088,898783.0,34799
1349.7,1.41238,898350.0,34759
1353.09,1.41464,896784.0,34518
1357.59,1.41637,895293.0,34324
1360.97,1.42164,892755.0,33814
1364.34,1.41795,890430.0,34013
1367.7,1.42934,888504.0,33061
1371.06,1.42781,885825.0,33078
1374.42,1.44027,881046.0,31969
1377.77,1.45089,874030.0,30948
1381.12,1.45933,865751.0,30065
1384.47,1.474506,857799.0,28766
1387.81,1.490905,851759.0,27505
1392.25,1.50581,846500.0,26413
1395.58,1.51079,843622.0,26023
1398.91,1.4973,841228.0,26768
1402.23,1.49608,838489.0,26756
1405.55,1.49552,836065.0,26713
1408.86,1.503751,834396.0,26159
1412.17,1.51144,832187.0,25632
1415.47,1.51987,830123.0,25077
1418.77,1.51734,828244.0,25166
1422.07,1.51249,827314.0,25420
1426.45,1.51092,826435.0,25485
1429.74,1.50902,825475.0,25567
1433.02,1.517579,824938.0,25052
1436.29,1.51306,823959.0,25284
1439.57,1.50344,823822.0,25846
1442.83,1.50168,823184.0,25931
1446.1,1.49779,821953.0,26125
1449.36,1.498907,821135.0,26032
1452.61,1.50061,819413.0,25876
1455.86,1.4995,817492.0,25881
1459.11,1.48769,814862.0,26509
1463.43,1.48575,811075.0,26504
1466.67,1.48809,807671.0,26251
1469.9,1.47969,803699.0,26632
1473.13,1.47737,799396.0,26631
1476.35,1.48455,795129.0,26055
1479.57,1.46958,790127.0,26799
1482.78,1.479444,784937.0,26025
1486,1.4763,779544.0,26034
1489.2,1.46989,773733.0,26224
1492.4,1.471,767463.0,25945
1496.67,1.47517,758614.0,25401
1499.86,1.47137,751802.0,25394
1503.04,1.46938,744297.0,25256
1506.23,1.47605,735980.0,24593
1509.41,1.47007,728040.0,24665
1512.58,1.47725,719703.0,23983
1515.75,1.47554,710982.0,23786
1518.92,1.47412,702409.0,23576
1522.08,1.472473,693280.0,23358
1525.24,1.48229,683935.0,22528
1529.44,1.48255,671492.0,22105
1532.59,1.48337,661352.0,21730
1535.73,1.49196,650841.0,20966
1538.87,1.4886,640156.0,20782
1542,1.47712,629036.0,20968
1545.13,1.48606,617445.0,20162
1548.26,1.47728,605527.0,20177
1551.38,1.47459,594133.0,19920
1554.49,1.46985,582894.0,19758
1557.61,1.47388,571271.0,19185
1561.75,1.47979,555940.0,18418
1564.85,1.4762,544812.0,18199
1567.95,1.47367,533402.0,17922
1571.05,1.47243,521915.0,17586
1574.14,1.467068,510788.0,17425
1577.22,1.46487,499607.0,17130
1580.3,1.47476,487992.0,16355
1583.38,1.47408,476265.0,15987
1586.45,1.4802,464618.0,15378
1589.52,1.46396,452782.0,15557
1593.6,1.47442,436897.0,14654
1596.66,1.48522,425551.0,13923
1599.71,1.47334,414191.0,13927
1602.76,1.46808,402799.0,13709
1605.81,1.47245,391352.0,13186
1608.85,1.48509,380811.0,12463
1611.89,1.46868,370076.0,12578
1614.92,1.48617,359798.0,11746
1617.95,1.46836,349165.0,11876
1620.97,1.464,338717.0,11637
1624.99,1.48049,325435.0,10764
1628.01,1.480248,315463.0,10440
1631.02,1.49287,305570.0,9823
1634.02,1.48976,295762.0,9576
1637.02,1.47929,286306.0,9496
1640.02,1.49727,276696.0,8805
1643.01,1.489351,267004.0,8653
1646,1.493797,257531.0,8261
1648.98,1.50293,247817.0,7784
1651.96,1.50536,238547.0,7451
1655.93,1.46593,225092.0,7699
1658.89,1.49641,214425.0,6837
1661.86,1.47966,202241.0,6702
1664.82,1.465648,188046.0,6436
1667.78,1.4716,171566.0,5792
1670.73,1.46043,154101.0,5338
1673.67,1.44811,134892.0,4807
1676.62,1.44241,115325.0,4164
1679.56,1.41795,97255.0,3715
1682.49,1.43261,81017.0,2992
1686.4,1.38149,63571.0,2641
1689.32,1.44131,53566.0,1939
1692.24,1.40875,45493.0,1775
1695.16,1.45994,39217.0,1360
1698.07,1.42446,33537.0,1262
1700.97,1.49196,29118.0,938