File: Data/LLDPE/LLDPE13_Column 1_20211230_113723.csv
***Scan Config Information***,,,,,,,***Reference Scan Information***,,,,,,,,
Scan Config Name:,Column 1,,,,,,Scan Config Name:,Built-in Factory Reference,,,,,,
Scan Config Type:,Slew,Num Section:,1,,,,Scan Config Type:,Slew,Num Section:,1,,,,,
Section Config Type:,Column,,,,,,Section Config Type:,Column,,,,,,,
Start Wavelength (nm):,900,,,,,,Start Wavelength (nm):,900.0,,,,,,
End Wavelength (nm):,1700,,,,,,End Wavelength (nm):,1700.0,,,,,,
Pattern Width (nm):,7.03,,,,,,Pattern Width (nm):,7.03,,,,,,,
Exposure (ms):,0.635,,,,,,Exposure (ms):,0.635,,,,,,,
Digital Resolution:,228,,,,,,Digital Resolution:,228,,,,,,,
Num Repeats:,6,,,,,,Num Repeats:,30,,,,,,,
PGA Gain:,64,,,,,,PGA Gain:,64,,,,,,
System Temp (C):,30.49,,,,,,System Temp (C):,24.17,,,,,,,
Humidity (%):,36.55,,,,,,Humidity (%):,30.0,,,,,,
Battery Capacity (%):,53,,,,,,Lamp Intensity:,2449,,,,,,,
Lamp Intensity:,2619,,,,,,Data Date-Time:,19/12/12T12:44:54,,,,,,
Data Date-Time:,18/1/1T7:16:41,,,,,,,,,,,,,,
Total Measurement Time in sec:,5.241,,,,,,,,,,,,,
***General Information***,,,,,,,***Calibration Coefficients***,,,,,,,,
Model Name:,NIR-S-G1,,,,,,Shift Vector Coefficients:,-8.44101,0.0554567,-8.45244e-05,,,,,
Serial Number:,947R055,95UB122GC0A947R055,,,,,Pixel to Wavelength Coefficients:,1795.87,-0.92014,-0.00023961,,,,,
APP Version:,2.16.7,,,,,,,,,,,,,
TIVA Version:,2.4.4,,,,,,***Lamp Usage * **,,,,,,,,
UUID:,de:67:c:88:67:2c:2d:21,,,,,,Total Time(HH:MM:SS):,14min 5sec ,,,,,,,
Main Board Version:,D,,,,,,***Device/Error Status***,,,,,,,,
Detector Board Version:,B,,,,,,Device Status:,0x00000031,,,,,,
,,,,,,,Error status:,0x00000000,Error Code:,0x00000000000000000000000000000000,,,,,
,,,,,,,,,Error Details:,Not Found,,,,,
***Scan Data***,,,,,,,,,,,,,,,
Wavelength (nm),Absorbance (AU),Reference Signal (unitless),Sample Signal (unitless)
901.841,1.325827,99968.0,4721
905.754,1.296957,108993.0,5501
909.663,1.30958,118185.0,5794
913.568,1.330655,129285.0,6038
917.469,1.35526,143347.0,6326
921.365,1.32215,160437.0,7641
925.257,1.32419,180387.0,8551
929.144,1.34867,201426.0,9025
933.028,1.34978,220694.0,9863
936.906,1.35522,237501.0,10482
942.072,1.34773,256956.0,11538
945.94,1.3248,270636.0,12811
949.805,1.33666,283621.0,13064
953.665,1.33601,296982.0,13700
957.521,1.33393,310733.0,14403
961.373,1.312207,324587.0,15817
965.22,1.31686,339205.0,16353
969.063,1.30675,353669.0,17452
972.902,1.31602,368253.0,17788
976.736,1.30396,382531.0,18998
981.842,1.31096,399901.0,19543
985.666,1.32009,411528.0,19693
989.486,1.32141,422199.0,20142
993.302,1.315732,431172.0,20841
997.113,1.31675,438051.0,21124
1000.92,1.31755,444216.0,21382
1004.72,1.31604,449307.0,21702
1008.52,1.32182,453601.0,21620
1012.32,1.32818,456801.0,21456
1016.11,1.31937,459312.0,22016
1021.15,1.32999,461643.0,21593
1024.93,1.31808,463069.0,22262
1028.71,1.32328,463868.0,22035
1032.48,1.31914,464326.0,22268
1036.24,1.325392,466001.0,22029
1040.01,1.32826,466870.0,21925
1043.77,1.32378,467033.0,22160
1047.52,1.32963,467045.0,21864
1051.27,1.336,467467.0,21565
1055.01,1.32572,467627.0,22089
1060,1.32785,468351.0,22015
1063.74,1.33743,469050.0,21567
1067.47,1.3245,469880.0,22258
1071.19,1.33695,471228.0,21691
1074.92,1.32765,472558.0,22223
1078.63,1.33119,474087.0,22114
1082.35,1.33107,476569.0,22236
1086.06,1.32498,479445.0,22686
1089.76,1.3309,481756.0,22487
1093.46,1.32828,485147.0,22782
1098.39,1.32816,489755.0,23005
1102.08,1.33182,493535.0,22988
1105.77,1.33545,497426.0,22976
1109.45,1.3293,501308.0,23486
1113.13,1.33168,505725.0,23563
1116.8,1.33415,509421.0,23601
1120.47,1.33925,513217.0,23499
1124.13,1.32882,517470.0,24270
1127.79,1.33923,521690.0,23888
1131.45,1.33095,526099.0,24554
1136.32,1.33895,531329.0,24345
1139.96,1.34194,535549.0,24370
1143.61,1.33873,539808.0,24746
1147.24,1.34653,543900.0,24490
1150.88,1.35007,547908.0,24470
1154.5,1.36126,552170.0,24033
1158.13,1.36399,556773.0,24082
1161.75,1.37168,561098.0,23843
1165.36,1.372545,565898.0,23999
1168.98,1.38268,571300.0,23669
1172.58,1.38115,576602.0,23973
1177.39,1.3924,584320.0,23673
1180.98,1.38983,589396.0,24020
1184.58,1.3933,596143.0,24102
1188.16,1.4084,602955.0,23544
1191.75,1.415866,609704.0,23402
1195.33,1.424593,617215.0,23219
1198.9,1.45088,624471.0,22112
1202.48,1.46426,632472.0,21716
1206.04,1.47663,640381.0,21370
1209.61,1.49366,648161.0,20798
1214.35,1.50917,659999.0,20435
1217.9,1.500396,668609.0,21124
1221.45,1.48354,677405.0,22249
1224.99,1.46164,686281.0,23706
1228.53,1.44859,695317.0,24751
1232.07,1.41872,704063.0,26847
1235.6,1.40972,713007.0,27757
1239.13,1.40137,721330.0,28626
1242.65,1.3979,730030.0,29204
1246.17,1.39844,737591.0,29470
1250.85,1.391108,746809.0,30346
1254.36,1.37963,753336.0,31431
1257.86,1.37862,759907.0,31779
1261.36,1.37715,766538.0,32165
1264.86,1.3742,774802.0,32733
1268.35,1.37625,784025.0,32967
1271.83,1.3796,794336.0,33144
1275.32,1.37596,804198.0,33838
1278.79,1.37213,813836.0,34547
1282.27,1.37533,823595.0,34704
1286.89,1.372477,834533.0,35397
1290.36,1.37035,842581.0,35914
1293.81,1.37346,849301.0,35942
1297.27,1.3753,856026.0,36073
1300.72,1.37743,862498.0,36168
1304.17,1.37425,868068.0,36669
1307.61,1.37413,872869.0,36882
1311.05,1.37493,877616.0,37015
1314.48,1.37258,881872.0,37396
1317.91,1.375059,885520.0,37337
1322.47,1.37308,888917.0,37651
1325.89,1.38092,891687.0,37093
1329.31,1.37652,894001.0,37568
1332.72,1.37218,895438.0,38006
1336.12,1.37598,896641.0,37726
1339.52,1.37964,897974.0,37465
1342.92,1.38376,898777.0,37144
1346.31,1.3776,898783.0,37675
1349.7,1.37924,898350.0,37515
1353.09,1.38993,896784.0,36539
1357.59,1.38582,895293.0,36825
1360.97,1.39264,892755.0,36149
1364.34,1.39237,890430.0,36077
1367.7,1.39608,888504.0,35693
1371.06,1.39975,885825.0,35286
1374.42,1.40887,881046.0,34366
1377.77,1.41327,874030.0,33749
1381.12,1.42514,865751.0,32528
1384.47,1.43802,857799.0,31287
1387.81,1.4636,851759.0,29290
1392.25,1.47627,846500.0,28272
1395.58,1.47972,843622.0,27953
1398.91,1.47016,841228.0,28494
1402.23,1.46692,838489.0,28614
1405.55,1.46578,836065.0,28606
1408.86,1.4751,834396.0,27943
1412.17,1.48097,832187.0,27495
1415.47,1.48279,830123.0,27312
1418.77,1.48713,828244.0,26979
1422.07,1.484605,827314.0,27106
1426.45,1.48525,826435.0,27037
1429.74,1.47827,825475.0,27443
1433.02,1.484,824938.0,27066
1436.29,1.48913,823959.0,26716
1439.57,1.47265,823822.0,27745
1442.83,1.48181,823184.0,27145
1446.1,1.468745,821953.0,27932
1449.36,1.46873,821135.0,27905
1452.61,1.4557,819413.0,28695
1455.86,1.46103,817492.0,28278
1459.11,1.4615,814862.0,28157
1463.43,1.45535,811075.0,28426
1466.67,1.45503,807671.0,28327
1469.9,1.440038,803699.0,29178
1473.13,1.44596,799396.0,28629
1476.35,1.44546,795129.0,28509
1479.57,1.44342,790127.0,28463
1482.78,1.43782,784937.0,28643
1486,1.44084,779544.0,28249
1489.2,1.4378,773733.0,28235
1492.4,1.43598,767463.0,28124
1496.67,1.44056,758614.0,27508
1499.86,1.43764,751802.0,27445
1503.04,1.43625,744297.0,27258
1506.23,1.4347,735980.0,27050
1509.41,1.43978,728040.0,26447
1512.58,1.44086,719703.0,26079
1515.75,1.43635,710982.0,26032
1518.92,1.44337,702409.0,25306
1522.08,1.442205,693280.0,25044
1525.24,1.44241,683935.0,24695
1529.44,1.43842,671492.0,24469
1532.59,1.44699,661352.0,23629
1535.73,1.44502,650841.0,23359
1538.87,1.44961,640156.0,22734
1542,1.44564,629036.0,22544
1545.13,1.45635,617445.0,21590
1548.26,1.44535,605527.0,21716
1551.38,1.450384,594133.0,21062
1554.49,1.43932,582894.0,21197
1557.61,1.4332,571271.0,21069
1561.75,1.440322,555940.0,20170
1564.85,1.43574,544812.0,19976
1567.95,1.44215,533402.0,19271
1571.05,1.44027,521915.0,18938
1574.14,1.44963,510788.0,18139
1577.22,1.4349,499607.0,18354
1580.3,1.44493,487992.0,17518
1583.38,1.43374,476265.0,17543
1586.45,1.44091,464618.0,16834
1589.52,1.439961,452782.0,16441
1593.6,1.44653,436897.0,15626
1596.66,1.44511,425551.0,15270
1599.71,1.43112,414191.0,15349
1602.76,1.44106,402799.0,14589
1605.81,1.4443,391352.0,14069
1608.85,1.45419,380811.0,13382
1611.89,1.45082,370076.0,13106
1614.92,1.44101,359798.0,13033
1617.95,1.43579,349165.0,12801
1620.97,1.44078,338717.0,12276
1624.99,1.45196,325435.0,11495
1628.01,1.43825,315463.0,11500
1631.02,1.45201,305570.0,10792
1634.02,1.43659,295762.0,10823
1637.02,1.45045,286306.0,10148
1640.02,1.46105,276696.0,9571
1643.01,1.43716,267004.0,9758
1646,1.449361,257531.0,9151
1648.98,1.45317,247817.0,8729
1651.96,1.4626,238547.0,8222
1655.93,1.46244,225092.0,7761
1658.89,1.44586,214425.0,7681
1661.86,1.46071,202241.0,7001
1664.82,1.45151,188046.0,6649
1667.78,1.43716,171566.0,6270
1670.73,1.42445,154101.0,5799
1673.67,1.38172,134892.0,5601
1676.62,1.41347,115325.0,4451
1679.56,1.35738,97255.0,4271
1682.49,1.34736,81017.0,3641
1686.4,1.46202,63571.0,2194
1689.32,1.39363,53566.0,2164
1692.24,1.4402,45493.0,1651
1695.16,1.43572,39217.0,1438
1698.07,1.44023,33537.0,1217
1700.97,1.46897,29118.0,989