File: Data/LLDPE/LLDPE4_Column 1_20211230_113513.csv
***Scan Config Information***,,,,,,,***Reference Scan Information***,,,,,,,,
Scan Config Name:,Column 1,,,,,,Scan Config Name:,Built-in Factory Reference,,,,,,
Scan Config Type:,Slew,Num Section:,1,,,,Scan Config Type:,Slew,Num Section:,1,,,,,
Section Config Type:,Column,,,,,,Section Config Type:,Column,,,,,,,
Start Wavelength (nm):,900,,,,,,Start Wavelength (nm):,900.0,,,,,,
End Wavelength (nm):,1700,,,,,,End Wavelength (nm):,1700.0,,,,,,
Pattern Width (nm):,7.03,,,,,,Pattern Width (nm):,7.03,,,,,,,
Exposure (ms):,0.635,,,,,,Exposure (ms):,0.635,,,,,,,
Digital Resolution:,228,,,,,,Digital Resolution:,228,,,,,,,
Num Repeats:,6,,,,,,Num Repeats:,30,,,,,,,
PGA Gain:,64,,,,,,PGA Gain:,64,,,,,,
System Temp (C):,29.26,,,,,,System Temp (C):,24.17,,,,,,,
Humidity (%):,36.93,,,,,,Humidity (%):,30.0,,,,,,
Battery Capacity (%):,55,,,,,,Lamp Intensity:,2449,,,,,,,
Lamp Intensity:,2596,,,,,,Data Date-Time:,19/12/12T12:44:54,,,,,,
Data Date-Time:,18/1/1T7:14:31,,,,,,,,,,,,,,
Total Measurement Time in sec:,5.069,,,,,,,,,,,,,
***General Information***,,,,,,,***Calibration Coefficients***,,,,,,,,
Model Name:,NIR-S-G1,,,,,,Shift Vector Coefficients:,-8.44101,0.0554567,-8.45244e-05,,,,,
Serial Number:,947R055,95UB122GC0A947R055,,,,,Pixel to Wavelength Coefficients:,1795.87,-0.92014,-0.00023961,,,,,
APP Version:,2.16.7,,,,,,,,,,,,,
TIVA Version:,2.4.4,,,,,,***Lamp Usage * **,,,,,,,,
UUID:,de:67:c:88:67:2c:2d:21,,,,,,Total Time(HH:MM:SS):,13min 45sec ,,,,,,,
Main Board Version:,D,,,,,,***Device/Error Status***,,,,,,,,
Detector Board Version:,B,,,,,,Device Status:,0x00000031,,,,,,
,,,,,,,Error status:,0x00000000,Error Code:,0x00000000000000000000000000000000,,,,,
,,,,,,,,,Error Details:,Not Found,,,,,
***Scan Data***,,,,,,,,,,,,,,,
Wavelength (nm),Absorbance (AU),Reference Signal (unitless),Sample Signal (unitless)
901.841,1.3356,99968.0,4616
905.754,1.28658,108993.0,5634
909.663,1.314332,118185.0,5731
913.568,1.29471,129285.0,6559
917.469,1.32171,143347.0,6834
921.365,1.33117,160437.0,7484
925.257,1.3398,180387.0,8249
929.144,1.33423,201426.0,9330
933.028,1.33003,220694.0,10322
936.906,1.3169,237501.0,11449
942.072,1.30797,256956.0,12644
945.94,1.30968,270636.0,13265
949.805,1.294406,283621.0,14399
953.665,1.32462,296982.0,14064
957.521,1.31485,310733.0,15050
961.373,1.31026,324587.0,15888
965.22,1.31245,339205.0,16520
969.063,1.31456,353669.0,17141
972.902,1.31174,368253.0,17964
976.736,1.30197,382531.0,19085
981.842,1.30014,399901.0,20036
985.666,1.3043,411528.0,20422
989.486,1.30456,422199.0,20939
993.302,1.31494,431172.0,20879
997.113,1.30818,438051.0,21545
1000.92,1.30914,444216.0,21800
1004.72,1.30872,449307.0,22071
1008.52,1.31038,453601.0,22197
1012.32,1.30816,456801.0,22468
1016.11,1.31215,459312.0,22385
1021.15,1.30776,461643.0,22727
1024.93,1.3175,463069.0,22292
1028.71,1.31502,463868.0,22458
1032.48,1.313715,464326.0,22548
1036.24,1.30832,466001.0,22912
1040.01,1.3139,466870.0,22662
1043.77,1.32301,467033.0,22199
1047.52,1.32201,467045.0,22251
1051.27,1.32461,467467.0,22138
1055.01,1.31336,467627.0,22727
1060,1.319994,468351.0,22417
1063.74,1.322486,469050.0,22322
1067.47,1.31936,469880.0,22523
1071.19,1.315849,471228.0,22771
1074.92,1.32332,472558.0,22446
1078.63,1.31798,474087.0,22797
1082.35,1.31744,476569.0,22945
1086.06,1.32303,479445.0,22788
1089.76,1.328834,481756.0,22594
1093.46,1.32488,485147.0,22961
1098.39,1.32371,489755.0,23242
1102.08,1.32305,493535.0,23457
1105.77,1.32277,497426.0,23657
1109.45,1.32395,501308.0,23777
1113.13,1.32188,505725.0,24101
1116.8,1.32409,509421.0,24154
1120.47,1.33033,513217.0,23987
1124.13,1.325269,517470.0,24469
1127.79,1.32842,521690.0,24490
1131.45,1.33279,526099.0,24450
1136.32,1.32943,531329.0,24885
1139.96,1.32828,535549.0,25149
1143.61,1.33402,539808.0,25016
1147.24,1.33826,543900.0,24961
1150.88,1.34315,547908.0,24863
1154.5,1.34043,552170.0,25214
1158.13,1.35545,556773.0,24560
1161.75,1.36195,561098.0,24383
1165.36,1.35649,565898.0,24903
1168.98,1.37053,571300.0,24341
1172.58,1.36957,576602.0,24621
1177.39,1.38572,584320.0,24040
1180.98,1.3881,589396.0,24116
1184.58,1.38707,596143.0,24450
1188.16,1.39737,602955.0,24150
1191.75,1.40738,609704.0,23864
1195.33,1.41686,617215.0,23636
1198.9,1.43956,624471.0,22696
1202.48,1.45418,632472.0,22226
1206.04,1.47034,640381.0,21682
1209.61,1.48668,648161.0,21135
1214.35,1.4921,659999.0,21254
1217.9,1.4934,668609.0,21467
1221.45,1.47043,677405.0,22931
1224.99,1.45483,686281.0,24081
1228.53,1.44151,695317.0,25158
1232.07,1.41897,704063.0,26831
1235.6,1.40403,713007.0,28123
1239.13,1.39638,721330.0,28957
1242.65,1.39443,730030.0,29438
1246.17,1.38827,737591.0,30168
1250.85,1.3831,746809.0,30911
1254.36,1.37683,753336.0,31634
1257.86,1.37692,759907.0,31904
1261.36,1.36667,766538.0,32951
1264.86,1.37035,774802.0,33025
1268.35,1.37262,784025.0,33244
1271.83,1.37181,794336.0,33744
1275.32,1.37154,804198.0,34184
1278.79,1.36979,813836.0,34733
1282.27,1.37218,823595.0,34957
1286.89,1.37366,834533.0,35301
1290.36,1.37065,842581.0,35889
1293.81,1.3702,849301.0,36213
1297.27,1.36939,856026.0,36568
1300.72,1.37341,862498.0,36505
1304.17,1.373131,868068.0,36764
1307.61,1.36865,872869.0,37351
1311.05,1.367159,877616.0,37683
1314.48,1.37365,881872.0,37304
1317.91,1.37163,885520.0,37633
1322.47,1.37142,888917.0,37796
1325.89,1.37023,891687.0,38017
1329.31,1.371166,894001.0,38034
1332.72,1.37711,895438.0,37577
1336.12,1.37525,896641.0,37789
1339.52,1.369623,897974.0,38339
1342.92,1.37531,898777.0,37874
1346.31,1.37218,898783.0,38148
1349.7,1.38014,898350.0,37437
1353.09,1.3817,896784.0,37238
1357.59,1.38152,895293.0,37192
1360.97,1.3883,892755.0,36512
1364.34,1.388248,890430.0,36421
1367.7,1.39466,888504.0,35810
1371.06,1.395,885825.0,35674
1374.42,1.40394,881046.0,34758
1377.77,1.41212,874030.0,33838
1381.12,1.4235,865751.0,32651
1384.47,1.43364,857799.0,31604
1387.81,1.45195,851759.0,30086
1392.25,1.47561,846500.0,28315
1395.58,1.46943,843622.0,28623
1398.91,1.45808,841228.0,29298
1402.23,1.45938,838489.0,29115
1405.55,1.45631,836065.0,29237
1408.86,1.46662,834396.0,28494
1412.17,1.4688,832187.0,28276
1415.47,1.4823,830123.0,27343
1418.77,1.47982,828244.0,27437
1422.07,1.477202,827314.0,27572
1426.45,1.47682,826435.0,27567
1429.74,1.48091,825475.0,27277
1433.02,1.47446,824938.0,27667
1436.29,1.47013,823959.0,27911
1439.57,1.46931,823822.0,27959
1442.83,1.47145,823184.0,27800
1446.1,1.46532,821953.0,28153
1449.36,1.46058,821135.0,28434
1452.61,1.46239,819413.0,28256
1455.86,1.450925,817492.0,28944
1459.11,1.44999,814862.0,28913
1463.43,1.4494,811075.0,28818
1466.67,1.44388,807671.0,29064
1469.9,1.444406,803699.0,28886
1473.13,1.44536,799396.0,28668
1476.35,1.43695,795129.0,29073
1479.57,1.4324,790127.0,29194
1482.78,1.43562,784937.0,28788
1486,1.44173,779544.0,28191
1489.2,1.43651,773733.0,28319
1492.4,1.43728,767463.0,28040
1496.67,1.43432,758614.0,27906
1499.86,1.43428,751802.0,27658
1503.04,1.43049,744297.0,27622
1506.23,1.42404,735980.0,27722
1509.41,1.43561,728040.0,26702
1512.58,1.43445,719703.0,26467
1515.75,1.44377,710982.0,25591
1518.92,1.433609,702409.0,25881
1522.08,1.4371,693280.0,25340
1525.24,1.43095,683935.0,25355
1529.44,1.43901,671492.0,24436
1532.59,1.4399,661352.0,24018
1535.73,1.44428,650841.0,23399
1538.87,1.44403,640156.0,23028
1542,1.43631,629036.0,23034
1545.13,1.43876,617445.0,22482
1548.26,1.44125,605527.0,21922
1551.38,1.430672,594133.0,22040
1554.49,1.44287,582894.0,21024
1557.61,1.43636,571271.0,20916
1561.75,1.43089,555940.0,20613
1564.85,1.43353,544812.0,20078
1567.95,1.43829,533402.0,19443
1571.05,1.429619,521915.0,19408
1574.14,1.43533,510788.0,18746
1577.22,1.43737,499607.0,18250
1580.3,1.43763,487992.0,17815
1583.38,1.4315,476265.0,17634
1586.45,1.43326,464618.0,17133
1589.52,1.43437,452782.0,16654
1593.6,1.44379,436897.0,15725
1596.66,1.43736,425551.0,15545
1599.71,1.43166,414191.0,15330
1602.76,1.42422,402799.0,15166
1605.81,1.43535,391352.0,14362
1608.85,1.41934,380811.0,14500
1611.89,1.4419,370076.0,13378
1614.92,1.43565,359798.0,13195
1617.95,1.42616,349165.0,13088
1620.97,1.45221,338717.0,11957
1624.99,1.44066,325435.0,11798
1628.01,1.43543,315463.0,11575
1631.02,1.44685,305570.0,10921
1634.02,1.44067,295762.0,10722
1637.02,1.45579,286306.0,10024
1640.02,1.43729,276696.0,10109
1643.01,1.45636,267004.0,9336
1646,1.46129,257531.0,8903
1648.98,1.43868,247817.0,9025
1651.96,1.45714,238547.0,8326
1655.93,1.455063,225092.0,7894
1658.89,1.4257,214425.0,8046
1661.86,1.43034,202241.0,7508
1664.82,1.43781,188046.0,6862
1667.78,1.43316,171566.0,6328
1670.73,1.44492,154101.0,5532
1673.67,1.39945,134892.0,5377
1676.62,1.38477,115325.0,4755
1679.56,1.38912,97255.0,3970
1682.49,1.31829,81017.0,3893
1686.4,1.34341,63571.0,2883
1689.32,1.339546,53566.0,2451
1692.24,1.36414,45493.0,1967
1695.16,1.42116,39217.0,1487
1698.07,1.36746,33537.0,1439
1700.97,1.492422,29118.0,937