File: Data/LLDPE/LLDPE6_Column 1_20211230_113542.csv
***Scan Config Information***,,,,,,,***Reference Scan Information***,,,,,,,,
Scan Config Name:,Column 1,,,,,,Scan Config Name:,Built-in Factory Reference,,,,,,
Scan Config Type:,Slew,Num Section:,1,,,,Scan Config Type:,Slew,Num Section:,1,,,,,
Section Config Type:,Column,,,,,,Section Config Type:,Column,,,,,,,
Start Wavelength (nm):,900,,,,,,Start Wavelength (nm):,900.0,,,,,,
End Wavelength (nm):,1700,,,,,,End Wavelength (nm):,1700.0,,,,,,
Pattern Width (nm):,7.03,,,,,,Pattern Width (nm):,7.03,,,,,,,
Exposure (ms):,0.635,,,,,,Exposure (ms):,0.635,,,,,,,
Digital Resolution:,228,,,,,,Digital Resolution:,228,,,,,,,
Num Repeats:,6,,,,,,Num Repeats:,30,,,,,,,
PGA Gain:,64,,,,,,PGA Gain:,64,,,,,,
System Temp (C):,29.53,,,,,,System Temp (C):,24.17,,,,,,,
Humidity (%):,36.82,,,,,,Humidity (%):,30.0,,,,,,
Battery Capacity (%):,54,,,,,,Lamp Intensity:,2449,,,,,,,
Lamp Intensity:,2601,,,,,,Data Date-Time:,19/12/12T12:44:54,,,,,,
Data Date-Time:,18/1/1T7:15:0,,,,,,,,,,,,,,
Total Measurement Time in sec:,5.253,,,,,,,,,,,,,
***General Information***,,,,,,,***Calibration Coefficients***,,,,,,,,
Model Name:,NIR-S-G1,,,,,,Shift Vector Coefficients:,-8.44101,0.0554567,-8.45244e-05,,,,,
Serial Number:,947R055,95UB122GC0A947R055,,,,,Pixel to Wavelength Coefficients:,1795.87,-0.92014,-0.00023961,,,,,
APP Version:,2.16.7,,,,,,,,,,,,,
TIVA Version:,2.4.4,,,,,,***Lamp Usage * **,,,,,,,,
UUID:,de:67:c:88:67:2c:2d:21,,,,,,Total Time(HH:MM:SS):,13min 49sec ,,,,,,,
Main Board Version:,D,,,,,,***Device/Error Status***,,,,,,,,
Detector Board Version:,B,,,,,,Device Status:,0x00000031,,,,,,
,,,,,,,Error status:,0x00000000,Error Code:,0x00000000000000000000000000000000,,,,,
,,,,,,,,,Error Details:,Not Found,,,,,
***Scan Data***,,,,,,,,,,,,,,,
Wavelength (nm),Absorbance (AU),Reference Signal (unitless),Sample Signal (unitless)
901.841,1.50404,99968.0,3132
905.754,1.51171,108993.0,3355
909.663,1.57191,118185.0,3167
913.568,1.490268,129285.0,4181
917.469,1.53273,143347.0,4204
921.365,1.53907,160437.0,4637
925.257,1.55819,180387.0,4989
929.144,1.54733,201426.0,5712
933.028,1.57213,220694.0,5911
936.906,1.56624,237501.0,6448
942.072,1.53237,256956.0,7542
945.94,1.54844,270636.0,7655
949.805,1.53919,283621.0,8195
953.665,1.54469,296982.0,8473
957.521,1.526011,310733.0,9255
961.373,1.53687,324587.0,9429
965.22,1.52674,339205.0,10086
969.063,1.52551,353669.0,10546
972.902,1.52172,368253.0,11077
976.736,1.51697,382531.0,11633
981.842,1.518235,399901.0,12126
985.666,1.52372,411528.0,12322
989.486,1.53325,422199.0,12367
993.302,1.531189,431172.0,12690
997.113,1.53486,438051.0,12784
1000.92,1.52433,444216.0,13282
1004.72,1.52006,449307.0,13567
1008.52,1.52782,453601.0,13454
1012.32,1.535549,456801.0,13310
1016.11,1.53682,459312.0,13344
1021.15,1.52654,461643.0,13733
1024.93,1.52835,463069.0,13718
1028.71,1.5198,463868.0,14015
1032.48,1.53495,464326.0,13548
1036.24,1.54012,466001.0,13436
1040.01,1.53832,466870.0,13517
1043.77,1.54008,467033.0,13467
1047.52,1.53816,467045.0,13527
1051.27,1.53932,467467.0,13503
1055.01,1.54936,467627.0,13199
1060,1.55214,468351.0,13135
1063.74,1.5404,469050.0,13515
1067.47,1.55356,469880.0,13135
1071.19,1.54245,471228.0,13514
1074.92,1.549104,472558.0,13346
1078.63,1.54251,474087.0,13594
1082.35,1.5385,476569.0,13792
1086.06,1.56211,479445.0,13141
1089.76,1.54642,481756.0,13690
1093.46,1.543046,485147.0,13894
1098.39,1.54519,489755.0,13957
1102.08,1.55287,493535.0,13818
1105.77,1.549547,497426.0,14034
1109.45,1.54742,501308.0,14213
1113.13,1.549247,505725.0,14278
1116.8,1.549016,509421.0,14390
1120.47,1.54699,513217.0,14565
1124.13,1.56212,517470.0,14183
1127.79,1.56543,521690.0,14190
1131.45,1.56319,526099.0,14384
1136.32,1.56143,531329.0,14586
1139.96,1.561098,535549.0,14713
1143.61,1.5675,539808.0,14613
1147.24,1.56198,543900.0,14912
1150.88,1.56561,547908.0,14897
1154.5,1.57231,552170.0,14783
1158.13,1.58138,556773.0,14598
1161.75,1.58995,561098.0,14424
1165.36,1.59236,565898.0,14467
1168.98,1.58878,571300.0,14726
1172.58,1.60384,576602.0,14356
1177.39,1.59463,584320.0,14860
1180.98,1.61262,589396.0,14381
1184.58,1.62758,596143.0,14053
1188.16,1.62177,602955.0,14405
1191.75,1.63458,609704.0,14143
1195.33,1.64375,617215.0,14018
1198.9,1.66747,624471.0,13429
1202.48,1.68066,632472.0,13194
1206.04,1.68524,640381.0,13219
1209.61,1.70454,648161.0,12798
1214.35,1.70045,659999.0,13155
1217.9,1.71143,668609.0,12994
1221.45,1.67125,677405.0,14441
1224.99,1.68202,686281.0,14272
1228.53,1.6628,695317.0,15114
1232.07,1.646515,704063.0,15889
1235.6,1.63469,713007.0,16535
1239.13,1.61629,721330.0,17452
1242.65,1.617828,730030.0,17600
1246.17,1.60187,737591.0,18448
1250.85,1.61242,746809.0,18230
1254.36,1.59734,753336.0,19039
1257.86,1.60737,759907.0,18767
1261.36,1.60019,766538.0,19246
1264.86,1.59483,774802.0,19695
1268.35,1.60929,784025.0,19277
1271.83,1.59586,794336.0,20144
1275.32,1.59691,804198.0,20345
1278.79,1.59465,813836.0,20696
1282.27,1.595339,823595.0,20911
1286.89,1.60128,834533.0,20901
1290.36,1.59599,842581.0,21361
1293.81,1.60653,849301.0,21015
1297.27,1.60234,856026.0,21387
1300.72,1.60183,862498.0,21574
1304.17,1.59904,868068.0,21853
1307.61,1.59835,872869.0,22009
1311.05,1.59637,877616.0,22230
1314.48,1.59405,881872.0,22457
1317.91,1.59324,885520.0,22592
1322.47,1.60693,888917.0,21975
1325.89,1.59551,891687.0,22631
1329.31,1.60035,894001.0,22438
1332.72,1.60235,895438.0,22371
1336.12,1.59713,896641.0,22672
1339.52,1.59188,897974.0,22982
1342.92,1.60022,898777.0,22565
1346.31,1.60354,898783.0,22393
1349.7,1.60121,898350.0,22503
1353.09,1.606785,896784.0,22177
1357.59,1.60257,895293.0,22356
1360.97,1.60194,892755.0,22325
1364.34,1.60702,890430.0,22008
1367.7,1.61262,888504.0,21679
1371.06,1.61732,885825.0,21381
1374.42,1.61881,881046.0,21193
1377.77,1.63047,874030.0,20467
1381.12,1.63275,865751.0,20167
1384.47,1.65603,857799.0,18939
1387.81,1.66614,851759.0,18373
1392.25,1.67173,846500.0,18026
1395.58,1.68627,843622.0,17373
1398.91,1.66128,841228.0,18350
1402.23,1.670232,838489.0,17917
1405.55,1.66377,836065.0,18133
1408.86,1.67551,834396.0,17614
1412.17,1.69239,832187.0,16898
1415.47,1.689256,830123.0,16978
1418.77,1.68253,828244.0,17204
1422.07,1.68986,827314.0,16897
1426.45,1.68254,826435.0,17166
1429.74,1.69054,825475.0,16833
1433.02,1.6685,824938.0,17698
1436.29,1.68423,823959.0,17048
1439.57,1.67917,823822.0,17245
1442.83,1.67675,823184.0,17328
1446.1,1.67333,821953.0,17439
1449.36,1.674065,821135.0,17392
1452.61,1.6623,819413.0,17832
1455.86,1.66858,817492.0,17535
1459.11,1.66755,814862.0,17520
1463.43,1.65767,811075.0,17840
1466.67,1.65591,807671.0,17837
1469.9,1.651029,803699.0,17950
1473.13,1.6447,799396.0,18116
1476.35,1.65234,795129.0,17705
1479.57,1.65213,790127.0,17602
1482.78,1.64512,784937.0,17771
1486,1.64198,779544.0,17777
1489.2,1.641158,773733.0,17678
1492.4,1.65125,767463.0,17132
1496.67,1.64095,758614.0,17341
1499.86,1.63939,751802.0,17247
1503.04,1.64592,744297.0,16820
1506.23,1.62837,735980.0,17318
1509.41,1.64662,728040.0,16426
1512.58,1.64276,719703.0,16383
1515.75,1.63927,710982.0,16315
1518.92,1.64402,702409.0,15943
1522.08,1.63959,693280.0,15897
1525.24,1.644487,683935.0,15507
1529.44,1.64238,671492.0,15299
1532.59,1.638589,661352.0,15200
1535.73,1.64439,650841.0,14760
1538.87,1.660934,640156.0,13975
1542,1.65128,629036.0,14041
1545.13,1.64621,617445.0,13944
1548.26,1.646365,605527.0,13670
1551.38,1.62819,594133.0,13986
1554.49,1.63988,582894.0,13357
1557.61,1.64912,571271.0,12815
1561.75,1.63102,555940.0,13002
1564.85,1.61696,544812.0,13161
1567.95,1.64005,533402.0,12218
1571.05,1.63024,521915.0,12228
1574.14,1.62374,510788.0,12148
1577.22,1.61689,499607.0,12071
1580.3,1.62685,487992.0,11523
1583.38,1.63847,476265.0,10949
1586.45,1.63299,464618.0,10817
1589.52,1.64036,452782.0,10364
1593.6,1.645754,436897.0,9877
1596.66,1.62317,425551.0,10134
1599.71,1.62139,414191.0,9904
1602.76,1.62313,402799.0,9593
1605.81,1.64977,391352.0,8766
1608.85,1.61848,380811.0,9167
1611.89,1.61328,370076.0,9016
1614.92,1.62669,359798.0,8499
1617.95,1.63214,349165.0,8145
1620.97,1.635244,338717.0,7845
1624.99,1.6392,325435.0,7469
1628.01,1.64089,315463.0,7212
1631.02,1.60464,305570.0,7594
1634.02,1.63361,295762.0,6876
1637.02,1.65832,286306.0,6288
1640.02,1.62942,276696.0,6495
1643.01,1.63057,267004.0,6251
1646,1.61788,257531.0,6208
1648.98,1.61794,247817.0,5973
1651.96,1.60584,238547.0,5912
1655.93,1.61034,225092.0,5521
1658.89,1.62945,214425.0,5033
1661.86,1.566376,202241.0,5489
1664.82,1.60495,188046.0,4670
1667.78,1.600458,171566.0,4305
1670.73,1.54435,154101.0,4400
1673.67,1.56414,134892.0,3680
1676.62,1.56986,115325.0,3105
1679.56,1.5203,97255.0,2935
1682.49,1.56556,81017.0,2203
1686.4,1.48021,63571.0,2104
1689.32,1.53856,53566.0,1550
1692.24,1.44443,45493.0,1635
1695.16,1.43996,39217.0,1424
1698.07,1.34569,33537.0,1513
1700.97,1.4694,29118.0,988