File: Data/LLDPE/LLDPE17_Column 1_20211230_113823.csv
***Scan Config Information***,,,,,,,***Reference Scan Information***,,,,,,,,
Scan Config Name:,Column 1,,,,,,Scan Config Name:,Built-in Factory Reference,,,,,,
Scan Config Type:,Slew,Num Section:,1,,,,Scan Config Type:,Slew,Num Section:,1,,,,,
Section Config Type:,Column,,,,,,Section Config Type:,Column,,,,,,,
Start Wavelength (nm):,900,,,,,,Start Wavelength (nm):,900.0,,,,,,
End Wavelength (nm):,1700,,,,,,End Wavelength (nm):,1700.0,,,,,,
Pattern Width (nm):,7.03,,,,,,Pattern Width (nm):,7.03,,,,,,,
Exposure (ms):,0.635,,,,,,Exposure (ms):,0.635,,,,,,,
Digital Resolution:,228,,,,,,Digital Resolution:,228,,,,,,,
Num Repeats:,6,,,,,,Num Repeats:,30,,,,,,,
PGA Gain:,64,,,,,,PGA Gain:,64,,,,,,
System Temp (C):,31.04,,,,,,System Temp (C):,24.17,,,,,,,
Humidity (%):,36.2,,,,,,Humidity (%):,30.0,,,,,,
Battery Capacity (%):,53,,,,,,Lamp Intensity:,2449,,,,,,,
Lamp Intensity:,2628,,,,,,Data Date-Time:,19/12/12T12:44:54,,,,,,
Data Date-Time:,18/1/1T7:17:42,,,,,,,,,,,,,,
Total Measurement Time in sec:,4.311,,,,,,,,,,,,,
***General Information***,,,,,,,***Calibration Coefficients***,,,,,,,,
Model Name:,NIR-S-G1,,,,,,Shift Vector Coefficients:,-8.44101,0.0554567,-8.45244e-05,,,,,
Serial Number:,947R055,95UB122GC0A947R055,,,,,Pixel to Wavelength Coefficients:,1795.87,-0.92014,-0.00023961,,,,,
APP Version:,2.16.7,,,,,,,,,,,,,
TIVA Version:,2.4.4,,,,,,***Lamp Usage * **,,,,,,,,
UUID:,de:67:c:88:67:2c:2d:21,,,,,,Total Time(HH:MM:SS):,14min 13sec ,,,,,,,
Main Board Version:,D,,,,,,***Device/Error Status***,,,,,,,,
Detector Board Version:,B,,,,,,Device Status:,0x00000031,,,,,,
,,,,,,,Error status:,0x00000000,Error Code:,0x00000000000000000000000000000000,,,,,
,,,,,,,,,Error Details:,Not Found,,,,,
***Scan Data***,,,,,,,,,,,,,,,
Wavelength (nm),Absorbance (AU),Reference Signal (unitless),Sample Signal (unitless)
901.841,1.3836,99968.0,4133
905.754,1.40595,108993.0,4280
909.663,1.38754,118185.0,4842
913.568,1.39031,129285.0,5263
917.469,1.40944,143347.0,5584
921.365,1.38635,160437.0,6591
925.257,1.42542,180387.0,6773
929.144,1.408196,201426.0,7869
933.028,1.39955,220694.0,8795
936.906,1.38608,237501.0,9763
942.072,1.38284,256956.0,10642
945.94,1.368677,270636.0,11580
949.805,1.37262,283621.0,12026
953.665,1.362174,296982.0,12899
957.521,1.37053,310733.0,13239
961.373,1.379937,324587.0,13533
965.22,1.3685,339205.0,14520
969.063,1.38705,353669.0,14506
972.902,1.37044,368253.0,15693
976.736,1.36992,382531.0,16321
981.842,1.36751,399901.0,17157
985.666,1.36916,411528.0,17589
989.486,1.36724,422199.0,18125
993.302,1.35649,431172.0,18974
997.113,1.3688,438051.0,18738
1000.92,1.35434,444216.0,19645
1004.72,1.3716,449307.0,19096
1008.52,1.37069,453601.0,19319
1012.32,1.36022,456801.0,19930
1016.11,1.36553,459312.0,19796
1021.15,1.37722,461643.0,19368
1024.93,1.36344,463069.0,20054
1028.71,1.37383,463868.0,19614
1032.48,1.37401,464326.0,19625
1036.24,1.36515,466001.0,20102
1040.01,1.3816,466870.0,19391
1043.77,1.37475,467033.0,19706
1047.52,1.36942,467045.0,19950
1051.27,1.36972,467467.0,19954
1055.01,1.38396,467627.0,19317
1060,1.38156,468351.0,19454
1063.74,1.37653,469050.0,19710
1067.47,1.3818,469880.0,19507
1071.19,1.37305,471228.0,19961
1074.92,1.38096,472558.0,19656
1078.63,1.38058,474087.0,19737
1082.35,1.37805,476569.0,19956
1086.06,1.37605,479445.0,20169
1089.76,1.387656,481756.0,19732
1093.46,1.38018,485147.0,20216
1098.39,1.386718,489755.0,20103
1102.08,1.38373,493535.0,20398
1105.77,1.38396,497426.0,20548
1109.45,1.38023,501308.0,20887
1113.13,1.38658,505725.0,20765
1116.8,1.383866,509421.0,21048
1120.47,1.37948,513217.0,21420
1124.13,1.37651,517470.0,21746
1127.79,1.38977,521690.0,21264
1131.45,1.38887,526099.0,21488
1136.32,1.39039,531329.0,21626
1139.96,1.39186,535549.0,21724
1143.61,1.38598,539808.0,22195
1147.24,1.39595,543900.0,21856
1150.88,1.39322,547908.0,22156
1154.5,1.40822,552170.0,21570
1158.13,1.41403,556773.0,21461
1161.75,1.41802,561098.0,21430
1165.36,1.41982,565898.0,21524
1168.98,1.43322,571300.0,21069
1172.58,1.43407,576602.0,21223
1177.39,1.43415,584320.0,21503
1180.98,1.44401,589396.0,21203
1184.58,1.45189,596143.0,21060
1188.16,1.46722,602955.0,20562
1191.75,1.46533,609704.0,20883
1195.33,1.48326,617215.0,20285
1198.9,1.49091,624471.0,20165
1202.48,1.51411,632472.0,19361
1206.04,1.53646,640381.0,18620
1209.61,1.54802,648161.0,18351
1214.35,1.54998,659999.0,18602
1217.9,1.54573,668609.0,19030
1221.45,1.52606,677405.0,20174
1224.99,1.51247,686281.0,21088
1228.53,1.48408,695317.0,22809
1232.07,1.47706,704063.0,23472
1235.6,1.46288,713007.0,24559
1239.13,1.45243,721330.0,25451
1242.65,1.44628,730030.0,26125
1246.17,1.44692,737591.0,26357
1250.85,1.43408,746809.0,27487
1254.36,1.43143,753336.0,27897
1257.86,1.42988,759907.0,28241
1261.36,1.4267,766538.0,28697
1264.86,1.42575,774802.0,29070
1268.35,1.42358,784025.0,29563
1271.83,1.42007,794336.0,30195
1275.32,1.42385,804198.0,30305
1278.79,1.423045,813836.0,30725
1282.27,1.42626,823595.0,30864
1286.89,1.424,834533.0,31437
1290.36,1.42765,842581.0,31475
1293.81,1.42352,849301.0,32029
1297.27,1.43009,856026.0,31798
1300.72,1.42323,862498.0,32548
1304.17,1.4228,868068.0,32791
1307.61,1.42158,872869.0,33065
1311.05,1.423,877616.0,33136
1314.48,1.42463,881872.0,33172
1317.91,1.43061,885520.0,32854
1322.47,1.424478,888917.0,33449
1325.89,1.42349,891687.0,33630
1329.31,1.42175,894001.0,33852
1332.72,1.43056,895438.0,33226
1336.12,1.42552,896641.0,33659
1339.52,1.42303,897974.0,33903
1342.92,1.4297,898777.0,33416
1346.31,1.43162,898783.0,33269
1349.7,1.42747,898350.0,33572
1353.09,1.43353,896784.0,33049
1357.59,1.4322,895293.0,33095
1360.97,1.43917,892755.0,32476
1364.34,1.44787,890430.0,31749
1367.7,1.44439,888504.0,31935
1371.06,1.445,885825.0,31794
1374.42,1.45728,881046.0,30741
1377.77,1.46581,874030.0,29903
1381.12,1.477443,865751.0,28837
1384.47,1.48525,857799.0,28063
1387.81,1.49746,851759.0,27093
1392.25,1.51903,846500.0,25621
1395.58,1.52178,843622.0,25373
1398.91,1.52282,841228.0,25240
1402.23,1.5053,838489.0,26194
1405.55,1.50728,836065.0,25999
1408.86,1.50779,834396.0,25917
1412.17,1.52244,832187.0,24991
1415.47,1.53093,830123.0,24446
1418.77,1.530804,828244.0,24398
1422.07,1.53169,827314.0,24321
1426.45,1.5165,826435.0,25160
1429.74,1.5235,825475.0,24729
1433.02,1.52846,824938.0,24432
1436.29,1.52321,823959.0,24700
1439.57,1.52361,823822.0,24673
1442.83,1.50797,823184.0,25558
1446.1,1.52252,821953.0,24679
1449.36,1.50804,821135.0,25490
1452.61,1.51031,819413.0,25304
1455.86,1.50868,817492.0,25340
1459.11,1.49641,814862.0,25982
1463.43,1.49898,811075.0,25709
1466.67,1.49293,807671.0,25960
1469.9,1.49799,803699.0,25533
1473.13,1.487939,799396.0,25991
1476.35,1.47957,795129.0,26355
1479.57,1.48196,790127.0,26046
1482.78,1.48463,784937.0,25716
1486,1.48089,779544.0,25760
1489.2,1.48139,773733.0,25539
1492.4,1.47796,767463.0,25533
1496.67,1.47964,758614.0,25141
1499.86,1.48726,751802.0,24482
1503.04,1.485069,744297.0,24360
1506.23,1.48602,735980.0,24035
1509.41,1.475906,728040.0,24336
1512.58,1.48233,719703.0,23704
1515.75,1.48279,710982.0,23392
1518.92,1.48581,702409.0,22950
1522.08,1.48132,693280.0,22887
1525.24,1.49295,683935.0,21982
1529.44,1.48854,671492.0,21802
1532.59,1.49067,661352.0,21368
1535.73,1.48132,650841.0,21486
1538.87,1.48077,640156.0,21160
1542,1.49227,629036.0,20249
1545.13,1.49011,617445.0,19975
1548.26,1.48778,605527.0,19695
1551.38,1.479991,594133.0,19674
1554.49,1.47464,582894.0,19541
1557.61,1.48215,571271.0,18823
1561.75,1.49368,555940.0,17838
1564.85,1.48405,544812.0,17873
1567.95,1.47347,533402.0,17930
1571.05,1.47968,521915.0,17295
1574.14,1.48973,510788.0,16539
1577.22,1.4832,499607.0,16422
1580.3,1.48091,487992.0,16125
1583.38,1.48564,476265.0,15567
1586.45,1.48003,464618.0,15384
1589.52,1.478295,452782.0,15052
1593.6,1.4806,436897.0,14447
1596.66,1.47918,425551.0,14118
1599.71,1.46897,414191.0,14068
1602.76,1.48768,402799.0,13104
1605.81,1.47919,391352.0,12983
1608.85,1.48736,380811.0,12398
1611.89,1.478,370076.0,12311
1614.92,1.49775,359798.0,11437
1617.95,1.45681,349165.0,12196
1620.97,1.48475,338717.0,11094
1624.99,1.49086,325435.0,10510
1628.01,1.50182,315463.0,9934
1631.02,1.47963,305570.0,10127
1634.02,1.48234,295762.0,9741
1637.02,1.49404,286306.0,9179
1640.02,1.49856,276696.0,8779
1643.01,1.49674,267004.0,8507
1646,1.503956,257531.0,8070
1648.98,1.46625,247817.0,8470
1651.96,1.49619,238547.0,7610
1655.93,1.49316,225092.0,7231
1658.89,1.51769,214425.0,6510
1661.86,1.47631,202241.0,6754
1664.82,1.51354,188046.0,5764
1667.78,1.4765,171566.0,5727
1670.73,1.45006,154101.0,5467
1673.67,1.3992,134892.0,5380
1676.62,1.42174,115325.0,4367
1679.56,1.41948,97255.0,3702
1682.49,1.44783,81017.0,2889
1686.4,1.41551,63571.0,2442
1689.32,1.51009,53566.0,1655
1692.24,1.51368,45493.0,1394
1695.16,1.36946,39217.0,1675
1698.07,1.38095,33537.0,1395
1700.97,1.43437,29118.0,1071