File: Data/LLDPE/LLDPE20_Column 1_20211230_113911.csv
***Scan Config Information***,,,,,,,***Reference Scan Information***,,,,,,,,
Scan Config Name:,Column 1,,,,,,Scan Config Name:,Built-in Factory Reference,,,,,,
Scan Config Type:,Slew,Num Section:,1,,,,Scan Config Type:,Slew,Num Section:,1,,,,,
Section Config Type:,Column,,,,,,Section Config Type:,Column,,,,,,,
Start Wavelength (nm):,900,,,,,,Start Wavelength (nm):,900.0,,,,,,
End Wavelength (nm):,1700,,,,,,End Wavelength (nm):,1700.0,,,,,,
Pattern Width (nm):,7.03,,,,,,Pattern Width (nm):,7.03,,,,,,,
Exposure (ms):,0.635,,,,,,Exposure (ms):,0.635,,,,,,,
Digital Resolution:,228,,,,,,Digital Resolution:,228,,,,,,,
Num Repeats:,6,,,,,,Num Repeats:,30,,,,,,,
PGA Gain:,64,,,,,,PGA Gain:,64,,,,,,
System Temp (C):,31.45,,,,,,System Temp (C):,24.17,,,,,,,
Humidity (%):,35.99,,,,,,Humidity (%):,30.0,,,,,,
Battery Capacity (%):,52,,,,,,Lamp Intensity:,2449,,,,,,,
Lamp Intensity:,2635,,,,,,Data Date-Time:,19/12/12T12:44:54,,,,,,
Data Date-Time:,18/1/1T7:18:30,,,,,,,,,,,,,,
Total Measurement Time in sec:,4.343,,,,,,,,,,,,,
***General Information***,,,,,,,***Calibration Coefficients***,,,,,,,,
Model Name:,NIR-S-G1,,,,,,Shift Vector Coefficients:,-8.44101,0.0554567,-8.45244e-05,,,,,
Serial Number:,947R055,95UB122GC0A947R055,,,,,Pixel to Wavelength Coefficients:,1795.87,-0.92014,-0.00023961,,,,,
APP Version:,2.16.7,,,,,,,,,,,,,
TIVA Version:,2.4.4,,,,,,***Lamp Usage * **,,,,,,,,
UUID:,de:67:c:88:67:2c:2d:21,,,,,,Total Time(HH:MM:SS):,14min 20sec ,,,,,,,
Main Board Version:,D,,,,,,***Device/Error Status***,,,,,,,,
Detector Board Version:,B,,,,,,Device Status:,0x00000031,,,,,,
,,,,,,,Error status:,0x00000000,Error Code:,0x00000000000000000000000000000000,,,,,
,,,,,,,,,Error Details:,Not Found,,,,,
***Scan Data***,,,,,,,,,,,,,,,
Wavelength (nm),Absorbance (AU),Reference Signal (unitless),Sample Signal (unitless)
901.841,1.28789,99968.0,5152
905.754,1.32223,108993.0,5190
909.663,1.28164,118185.0,6179
913.568,1.32779,129285.0,6078
917.469,1.31266,143347.0,6978
921.365,1.31802,160437.0,7714
925.257,1.31899,180387.0,8654
929.144,1.32162,201426.0,9605
933.028,1.3273,220694.0,10387
936.906,1.31792,237501.0,11422
942.072,1.308421,256956.0,12631
945.94,1.29684,270636.0,13663
949.805,1.2985,283621.0,14264
953.665,1.29206,296982.0,15159
957.521,1.29643,310733.0,15702
961.373,1.29301,324587.0,16532
965.22,1.29767,339205.0,17092
969.063,1.30067,353669.0,17698
972.902,1.29435,368253.0,18698
976.736,1.29054,382531.0,19594
981.842,1.286255,399901.0,20687
985.666,1.28735,411528.0,21235
989.486,1.29381,422199.0,21464
993.302,1.29516,431172.0,21852
997.113,1.29578,438051.0,22169
1000.92,1.29184,444216.0,22686
1004.72,1.29638,449307.0,22707
1008.52,1.29412,453601.0,23044
1012.32,1.29781,456801.0,23010
1016.11,1.29818,459312.0,23117
1021.15,1.298014,461643.0,23243
1024.93,1.29571,463069.0,23439
1028.71,1.29523,463868.0,23505
1032.48,1.29596,464326.0,23489
1036.24,1.30234,466001.0,23230
1040.01,1.30419,466870.0,23174
1043.77,1.30423,467033.0,23180
1047.52,1.30076,467045.0,23367
1051.27,1.29852,467467.0,23509
1055.01,1.30642,467627.0,23093
1060,1.305983,468351.0,23152
1063.74,1.30547,469050.0,23214
1067.47,1.30549,469880.0,23254
1071.19,1.30006,471228.0,23614
1074.92,1.30324,472558.0,23508
1078.63,1.307348,474087.0,23362
1082.35,1.30562,476569.0,23578
1086.06,1.30254,479445.0,23889
1089.76,1.30629,481756.0,23798
1093.46,1.30134,485147.0,24240
1098.39,1.30321,489755.0,24365
1102.08,1.30015,493535.0,24727
1105.77,1.30415,497426.0,24693
1109.45,1.31361,501308.0,24350
1113.13,1.30505,505725.0,25053
1116.8,1.3074,509421.0,25100
1120.47,1.30737,513217.0,25289
1124.13,1.3068,517470.0,25532
1127.79,1.306551,521690.0,25755
1131.45,1.30713,526099.0,25938
1136.32,1.31066,531329.0,25984
1139.96,1.31252,535549.0,26078
1143.61,1.32175,539808.0,25733
1147.24,1.32345,543900.0,25827
1150.88,1.32129,547908.0,26147
1154.5,1.32517,552170.0,26116
1158.13,1.34059,556773.0,25415
1161.75,1.34564,561098.0,25316
1165.36,1.35492,565898.0,24993
1168.98,1.35174,571300.0,25417
1172.58,1.3516,576602.0,25661
1177.39,1.36226,584320.0,25374
1180.98,1.38304,589396.0,24399
1184.58,1.37978,596143.0,24864
1188.16,1.38812,602955.0,24670
1191.75,1.40044,609704.0,24248
1195.33,1.41006,617215.0,24009
1198.9,1.42682,624471.0,23372
1202.48,1.45465,632472.0,22202
1206.04,1.4613,640381.0,22138
1209.61,1.47118,648161.0,21903
1214.35,1.48901,659999.0,21406
1217.9,1.48255,668609.0,22010
1221.45,1.461002,677405.0,23434
1224.99,1.43714,686281.0,25082
1228.53,1.42009,695317.0,26430
1232.07,1.40673,704063.0,27598
1235.6,1.38813,713007.0,29172
1239.13,1.38528,721330.0,29707
1242.65,1.37365,730030.0,30881
1246.17,1.37338,737591.0,31220
1250.85,1.36402,746809.0,32299
1254.36,1.36681,753336.0,32373
1257.86,1.36026,759907.0,33151
1261.36,1.361933,766538.0,33312
1264.86,1.357929,774802.0,33983
1268.35,1.35633,784025.0,34514
1271.83,1.35494,794336.0,35080
1275.32,1.35101,804198.0,35839
1278.79,1.357273,813836.0,35749
1282.27,1.35602,823595.0,36282
1286.89,1.35405,834533.0,36931
1290.36,1.355057,842581.0,37201
1293.81,1.355123,849301.0,37492
1297.27,1.35301,856026.0,37973
1300.72,1.356592,862498.0,37946
1304.17,1.35423,868068.0,38399
1307.61,1.35445,872869.0,38592
1311.05,1.3537,877616.0,38869
1314.48,1.356171,881872.0,38836
1317.91,1.34794,885520.0,39743
1322.47,1.35769,888917.0,39010
1325.89,1.35363,891687.0,39499
1329.31,1.35086,894001.0,39855
1332.72,1.35804,895438.0,39264
1336.12,1.35518,896641.0,39577
1339.52,1.36104,897974.0,39104
1342.92,1.35936,898777.0,39291
1346.31,1.36222,898783.0,39033
1349.7,1.35845,898350.0,39355
1353.09,1.36287,896784.0,38888
1357.59,1.36358,895293.0,38760
1360.97,1.36934,892755.0,38141
1364.34,1.37205,890430.0,37805
1367.7,1.38036,888504.0,37008
1371.06,1.37905,885825.0,37008
1374.42,1.39127,881046.0,35787
1377.77,1.40137,874030.0,34686
1381.12,1.40489,865751.0,34080
1384.47,1.41954,857799.0,32647
1387.81,1.438759,851759.0,31014
1392.25,1.45934,846500.0,29396
1395.58,1.46342,843622.0,29022
1398.91,1.4544,841228.0,29547
1402.23,1.442,838489.0,30304
1405.55,1.450523,836065.0,29629
1408.86,1.45962,834396.0,28957
1412.17,1.46075,832187.0,28805
1415.47,1.47076,830123.0,28079
1418.77,1.4776,828244.0,27578
1422.07,1.46008,827314.0,28681
1426.45,1.465499,826435.0,28295
1429.74,1.46905,825475.0,28032
1433.02,1.4675,824938.0,28114
1436.29,1.46844,823959.0,28020
1439.57,1.46586,823822.0,28182
1442.83,1.45594,823184.0,28811
1446.1,1.45657,821953.0,28726
1449.36,1.44772,821135.0,29288
1452.61,1.45397,819413.0,28809
1455.86,1.444624,817492.0,29367
1459.11,1.43991,814862.0,29592
1463.43,1.43698,811075.0,29654
1466.67,1.43602,807671.0,29595
1469.9,1.434536,803699.0,29550
1473.13,1.42576,799396.0,29992
1476.35,1.429366,795129.0,29585
1479.57,1.42635,790127.0,29604
1482.78,1.42543,784937.0,29472
1486,1.42397,779544.0,29368
1489.2,1.42462,773733.0,29105
1492.4,1.41761,767463.0,29339
1496.67,1.42155,758614.0,28739
1499.86,1.41326,751802.0,29030
1503.04,1.42717,744297.0,27834
1506.23,1.42245,735980.0,27824
1509.41,1.42552,728040.0,27330
1512.58,1.42756,719703.0,26890
1515.75,1.42235,710982.0,26885
1518.92,1.42321,702409.0,26508
1522.08,1.42976,693280.0,25772
1525.24,1.427896,683935.0,25534
1529.44,1.42924,671492.0,24992
1532.59,1.42317,661352.0,24961
1535.73,1.42805,650841.0,24290
1538.87,1.43053,640156.0,23755
1542,1.43136,629036.0,23298
1545.13,1.42676,617445.0,23112
1548.26,1.42816,605527.0,22593
1551.38,1.43461,594133.0,21841
1554.49,1.42384,582894.0,21966
1557.61,1.41343,571271.0,22050
1561.75,1.42983,555940.0,20663
1564.85,1.42341,544812.0,20551
1567.95,1.41759,533402.0,20392
1571.05,1.42464,521915.0,19632
1574.14,1.42812,510788.0,19060
1577.22,1.4218,499607.0,18916
1580.3,1.42019,487992.0,18545
1583.38,1.4154,476265.0,18300
1586.45,1.4291,464618.0,17298
1589.52,1.42698,452782.0,16940
1593.6,1.43038,436897.0,16218
1596.66,1.42895,425551.0,15849
1599.71,1.42898,414191.0,15425
1602.76,1.43126,402799.0,14922
1605.81,1.42833,391352.0,14596
1608.85,1.43913,380811.0,13854
1611.89,1.43421,370076.0,13617
1614.92,1.43204,359798.0,13305
1617.95,1.40844,349165.0,13633
1620.97,1.42806,338717.0,12641
1624.99,1.44084,325435.0,11793
1628.01,1.43682,315463.0,11538
1631.02,1.43288,305570.0,11278
1634.02,1.42355,295762.0,11153
1637.02,1.4453,286306.0,10269
1640.02,1.44127,276696.0,10017
1643.01,1.4419,267004.0,9652
1646,1.43886,257531.0,9375
1648.98,1.43063,247817.0,9194
1651.96,1.43981,238547.0,8665
1655.93,1.43135,225092.0,8337
1658.89,1.45161,214425.0,7580
1661.86,1.473041,202241.0,6805
1664.82,1.425029,188046.0,7067
1667.78,1.43125,171566.0,6356
1670.73,1.40871,154101.0,6013
1673.67,1.41877,134892.0,5143
1676.62,1.36697,115325.0,4954
1679.56,1.38716,97255.0,3988
1682.49,1.40492,81017.0,3189
1686.4,1.42196,63571.0,2406
1689.32,1.37748,53566.0,2246
1692.24,1.37419,45493.0,1922
1695.16,1.3781,39217.0,1642
1698.07,1.420014,33537.0,1275
1700.97,1.96447,29118.0,316