File: Data/LLDPE/LLDPE19_Column 1_20211230_113857.csv
***Scan Config Information***,,,,,,,***Reference Scan Information***,,,,,,,,
Scan Config Name:,Column 1,,,,,,Scan Config Name:,Built-in Factory Reference,,,,,,
Scan Config Type:,Slew,Num Section:,1,,,,Scan Config Type:,Slew,Num Section:,1,,,,,
Section Config Type:,Column,,,,,,Section Config Type:,Column,,,,,,,
Start Wavelength (nm):,900,,,,,,Start Wavelength (nm):,900.0,,,,,,
End Wavelength (nm):,1700,,,,,,End Wavelength (nm):,1700.0,,,,,,
Pattern Width (nm):,7.03,,,,,,Pattern Width (nm):,7.03,,,,,,,
Exposure (ms):,0.635,,,,,,Exposure (ms):,0.635,,,,,,,
Digital Resolution:,228,,,,,,Digital Resolution:,228,,,,,,,
Num Repeats:,6,,,,,,Num Repeats:,30,,,,,,,
PGA Gain:,64,,,,,,PGA Gain:,64,,,,,,
System Temp (C):,31.32,,,,,,System Temp (C):,24.17,,,,,,,
Humidity (%):,36.09,,,,,,Humidity (%):,30.0,,,,,,
Battery Capacity (%):,53,,,,,,Lamp Intensity:,2449,,,,,,,
Lamp Intensity:,2632,,,,,,Data Date-Time:,19/12/12T12:44:54,,,,,,
Data Date-Time:,18/1/1T7:18:15,,,,,,,,,,,,,,
Total Measurement Time in sec:,5.434,,,,,,,,,,,,,
***General Information***,,,,,,,***Calibration Coefficients***,,,,,,,,
Model Name:,NIR-S-G1,,,,,,Shift Vector Coefficients:,-8.44101,0.0554567,-8.45244e-05,,,,,
Serial Number:,947R055,95UB122GC0A947R055,,,,,Pixel to Wavelength Coefficients:,1795.87,-0.92014,-0.00023961,,,,,
APP Version:,2.16.7,,,,,,,,,,,,,
TIVA Version:,2.4.4,,,,,,***Lamp Usage * **,,,,,,,,
UUID:,de:67:c:88:67:2c:2d:21,,,,,,Total Time(HH:MM:SS):,14min 18sec ,,,,,,,
Main Board Version:,D,,,,,,***Device/Error Status***,,,,,,,,
Detector Board Version:,B,,,,,,Device Status:,0x00000031,,,,,,
,,,,,,,Error status:,0x00000000,Error Code:,0x00000000000000000000000000000000,,,,,
,,,,,,,,,Error Details:,Not Found,,,,,
***Scan Data***,,,,,,,,,,,,,,,
Wavelength (nm),Absorbance (AU),Reference Signal (unitless),Sample Signal (unitless)
901.841,1.37015,99968.0,4263
905.754,1.361254,108993.0,4744
909.663,1.438892,118185.0,4302
913.568,1.427601,129285.0,4830
917.469,1.40357,143347.0,5660
921.365,1.405964,160437.0,6300
925.257,1.40968,180387.0,7023
929.144,1.388241,201426.0,8239
933.028,1.40188,220694.0,8748
936.906,1.39303,237501.0,9608
942.072,1.38345,256956.0,10627
945.94,1.38441,270636.0,11168
949.805,1.37541,283621.0,11949
953.665,1.36576,296982.0,12793
957.521,1.375979,310733.0,13074
961.373,1.36131,324587.0,14126
965.22,1.37225,339205.0,14395
969.063,1.3641,353669.0,15293
972.902,1.35447,368253.0,16281
976.736,1.365973,382531.0,16470
981.842,1.35511,399901.0,17654
985.666,1.35792,411528.0,18050
989.486,1.36466,422199.0,18233
993.302,1.36059,431172.0,18796
997.113,1.37948,438051.0,18283
1000.92,1.36237,444216.0,19285
1004.72,1.36748,449307.0,19278
1008.52,1.3715,453601.0,19283
1012.32,1.3709,456801.0,19446
1016.11,1.357488,459312.0,20166
1021.15,1.36234,461643.0,20043
1024.93,1.37726,463069.0,19426
1028.71,1.37056,463868.0,19762
1032.48,1.37126,464326.0,19750
1036.24,1.370692,466001.0,19847
1040.01,1.38113,466870.0,19412
1043.77,1.37451,467033.0,19717
1047.52,1.38185,467045.0,19387
1051.27,1.38309,467467.0,19349
1055.01,1.376537,467627.0,19650
1060,1.38468,468351.0,19315
1063.74,1.37243,469050.0,19897
1067.47,1.38598,469880.0,19320
1071.19,1.38507,471228.0,19416
1074.92,1.3834,472558.0,19546
1078.63,1.38482,474087.0,19545
1082.35,1.37204,476569.0,20234
1086.06,1.37813,479445.0,20073
1089.76,1.376252,481756.0,20257
1093.46,1.38739,485147.0,19883
1098.39,1.372919,489755.0,20752
1102.08,1.37863,493535.0,20639
1105.77,1.37405,497426.0,21022
1109.45,1.3795,501308.0,20922
1113.13,1.39163,505725.0,20525
1116.8,1.38236,509421.0,21121
1120.47,1.37639,513217.0,21573
1124.13,1.3852,517470.0,21315
1127.79,1.39309,521690.0,21102
1131.45,1.38861,526099.0,21501
1136.32,1.39065,531329.0,21613
1139.96,1.38622,535549.0,22008
1143.61,1.39528,539808.0,21725
1147.24,1.39583,543900.0,21862
1150.88,1.39412,547908.0,22110
1154.5,1.40822,552170.0,21570
1158.13,1.41185,556773.0,21569
1161.75,1.424,561098.0,21137
1165.36,1.41855,565898.0,21587
1168.98,1.42928,571300.0,21261
1172.58,1.4318,576602.0,21334
1177.39,1.44046,584320.0,21193
1180.98,1.44666,589396.0,21074
1184.58,1.45745,596143.0,20792
1188.16,1.46415,602955.0,20708
1191.75,1.47485,609704.0,20430
1195.33,1.48273,617215.0,20310
1198.9,1.49372,624471.0,20035
1202.48,1.50954,632472.0,19566
1206.04,1.53097,640381.0,18857
1209.61,1.544887,648161.0,18484
1214.35,1.54622,659999.0,18764
1217.9,1.54598,668609.0,19019
1221.45,1.53204,677405.0,19898
1224.99,1.51259,686281.0,21082
1228.53,1.49415,695317.0,22286
1232.07,1.48013,704063.0,23307
1235.6,1.46446,713007.0,24470
1239.13,1.45782,721330.0,25137
1242.65,1.45314,730030.0,25716
1246.17,1.44639,737591.0,26389
1250.85,1.4326,746809.0,27581
1254.36,1.43669,753336.0,27561
1257.86,1.436216,759907.0,27832
1261.36,1.43677,766538.0,28039
1264.86,1.4333,774802.0,28569
1268.35,1.42785,784025.0,29274
1271.83,1.428962,794336.0,29583
1275.32,1.43157,804198.0,29771
1278.79,1.43164,813836.0,30123
1282.27,1.43589,823595.0,30187
1286.89,1.42648,834533.0,31258
1290.36,1.42824,842581.0,31432
1293.81,1.42782,849301.0,31713
1297.27,1.427785,856026.0,31967
1300.72,1.42596,862498.0,32344
1304.17,1.43167,868068.0,32128
1307.61,1.42968,872869.0,32454
1311.05,1.427338,877616.0,32807
1314.48,1.431509,881872.0,32651
1317.91,1.4293,885520.0,32953
1322.47,1.4302,888917.0,33011
1325.89,1.4299,891687.0,33137
1329.31,1.43278,894001.0,33003
1332.72,1.42751,895438.0,33460
1336.12,1.43204,896641.0,33157
1339.52,1.42531,897974.0,33725
1342.92,1.43321,898777.0,33147
1346.31,1.43364,898783.0,33114
1349.7,1.44182,898350.0,32481
1353.09,1.439124,896784.0,32626
1357.59,1.438601,895293.0,32611
1360.97,1.44394,892755.0,32121
1364.34,1.44484,890430.0,31971
1367.7,1.44677,888504.0,31761
1371.06,1.45215,885825.0,31275
1374.42,1.45843,881046.0,30660
1377.77,1.460643,874030.0,30261
1381.12,1.47885,865751.0,28744
1384.47,1.48716,857799.0,27940
1387.81,1.50249,851759.0,26781
1392.25,1.52129,846500.0,25488
1395.58,1.52315,843622.0,25293
1398.91,1.5138,841228.0,25770
1402.23,1.51517,838489.0,25605
1405.55,1.511311,836065.0,25759
1408.86,1.51719,834396.0,25362
1412.17,1.521552,832187.0,25042
1415.47,1.5317,830123.0,24403
1418.77,1.530804,828244.0,24398
1422.07,1.54062,827314.0,23826
1426.45,1.52854,826435.0,24472
1429.74,1.53505,825475.0,24080
1433.02,1.52752,824938.0,24485
1436.29,1.53016,823959.0,24308
1439.57,1.52242,823822.0,24741
1442.83,1.52419,823184.0,24621
1446.1,1.51383,821953.0,25178
1449.36,1.51628,821135.0,25011
1452.61,1.49975,819413.0,25927
1455.86,1.50935,817492.0,25301
1459.11,1.50273,814862.0,25607
1463.43,1.49992,811075.0,25653
1466.67,1.496761,807671.0,25732
1469.9,1.49811,803699.0,25526
1473.13,1.48792,799396.0,25992
1476.35,1.49393,795129.0,25498
1479.57,1.49329,790127.0,25375
1482.78,1.48359,784937.0,25778
1486,1.47774,779544.0,25948
1489.2,1.48408,773733.0,25381
1492.4,1.48259,767463.0,25262
1496.67,1.4865,758614.0,24747
1499.86,1.4816,751802.0,24803
1503.04,1.488308,744297.0,24179
1506.23,1.48015,735980.0,24362
1509.41,1.48025,728040.0,24094
1512.58,1.47796,719703.0,23944
1515.75,1.48417,710982.0,23318
1518.92,1.48598,702409.0,22941
1522.08,1.49159,693280.0,22352
1525.24,1.48517,683935.0,22379
1529.44,1.481824,671492.0,22142
1532.59,1.48814,661352.0,21493
1535.73,1.485442,650841.0,21283
1538.87,1.49288,640156.0,20578
1542,1.48359,629036.0,20658
1545.13,1.483766,617445.0,20269
1548.26,1.491498,605527.0,19527
1551.38,1.48152,594133.0,19605
1554.49,1.48261,582894.0,19186
1557.61,1.47558,571271.0,19110
1561.75,1.47479,555940.0,18631
1564.85,1.473416,544812.0,18316
1567.95,1.471951,533402.0,17993
1571.05,1.48237,521915.0,17188
1574.14,1.47749,510788.0,17012
1577.22,1.4849,499607.0,16358
1580.3,1.47804,487992.0,16232
1583.38,1.48267,476265.0,15674
1586.45,1.48368,464618.0,15255
1589.52,1.48902,452782.0,14685
1593.6,1.48864,436897.0,14182
1596.66,1.47666,425551.0,14200
1599.71,1.4777,414191.0,13788
1602.76,1.4763,402799.0,13452
1605.81,1.47619,391352.0,13073
1608.85,1.48474,380811.0,12473
1611.89,1.48475,370076.0,12121
1614.92,1.48565,359798.0,11760
1617.95,1.46132,349165.0,12070
1620.97,1.48178,338717.0,11170
1624.99,1.47576,325435.0,10882
1628.01,1.4895,315463.0,10220
1631.02,1.46979,305570.0,10359
1634.02,1.47619,295762.0,9880
1637.02,1.48458,286306.0,9381
1640.02,1.48492,276696.0,9059
1643.01,1.48253,267004.0,8790
1646,1.49343,257531.0,8268
1648.98,1.47531,247817.0,8295
1651.96,1.49454,238547.0,7639
1655.93,1.46989,225092.0,7629
1658.89,1.47588,214425.0,7168
1661.86,1.49894,202241.0,6411
1664.82,1.48082,188046.0,6215
1667.78,1.459185,171566.0,5960
1670.73,1.45037,154101.0,5463
1673.67,1.403259,134892.0,5330
1676.62,1.42075,115325.0,4377
1679.56,1.438786,97255.0,3541
1682.49,1.37038,81017.0,3453
1686.4,1.39689,63571.0,2549
1689.32,1.39283,53566.0,2168
1692.24,1.317104,45493.0,2192
1695.16,1.45898,39217.0,1363
1698.07,1.37507,33537.0,1414
1700.97,1.49196,29118.0,938