File: Data/LLDPE/LLDPE1_Column 1_20211230_113422.csv
***Scan Config Information***,,,,,,,***Reference Scan Information***,,,,,,,,
Scan Config Name:,Column 1,,,,,,Scan Config Name:,Built-in Factory Reference,,,,,,
Scan Config Type:,Slew,Num Section:,1,,,,Scan Config Type:,Slew,Num Section:,1,,,,,
Section Config Type:,Column,,,,,,Section Config Type:,Column,,,,,,,
Start Wavelength (nm):,900,,,,,,Start Wavelength (nm):,900.0,,,,,,
End Wavelength (nm):,1700,,,,,,End Wavelength (nm):,1700.0,,,,,,
Pattern Width (nm):,7.03,,,,,,Pattern Width (nm):,7.03,,,,,,,
Exposure (ms):,0.635,,,,,,Exposure (ms):,0.635,,,,,,,
Digital Resolution:,228,,,,,,Digital Resolution:,228,,,,,,,
Num Repeats:,6,,,,,,Num Repeats:,30,,,,,,,
PGA Gain:,64,,,,,,PGA Gain:,64,,,,,,
System Temp (C):,28.81,,,,,,System Temp (C):,24.17,,,,,,,
Humidity (%):,36.77,,,,,,Humidity (%):,30.0,,,,,,
Battery Capacity (%):,56,,,,,,Lamp Intensity:,2449,,,,,,,
Lamp Intensity:,2584,,,,,,Data Date-Time:,19/12/12T12:44:54,,,,,,
Data Date-Time:,18/1/1T7:13:41,,,,,,,,,,,,,,
Total Measurement Time in sec:,4.158,,,,,,,,,,,,,
***General Information***,,,,,,,***Calibration Coefficients***,,,,,,,,
Model Name:,NIR-S-G1,,,,,,Shift Vector Coefficients:,-8.44101,0.0554567,-8.45244e-05,,,,,
Serial Number:,947R055,95UB122GC0A947R055,,,,,Pixel to Wavelength Coefficients:,1795.87,-0.92014,-0.00023961,,,,,
APP Version:,2.16.7,,,,,,,,,,,,,
TIVA Version:,2.4.4,,,,,,***Lamp Usage * **,,,,,,,,
UUID:,de:67:c:88:67:2c:2d:21,,,,,,Total Time(HH:MM:SS):,13min 38sec ,,,,,,,
Main Board Version:,D,,,,,,***Device/Error Status***,,,,,,,,
Detector Board Version:,B,,,,,,Device Status:,0x00000031,,,,,,
,,,,,,,Error status:,0x00000000,Error Code:,0x00000000000000000000000000000000,,,,,
,,,,,,,,,Error Details:,Not Found,,,,,
***Scan Data***,,,,,,,,,,,,,,,
Wavelength (nm),Absorbance (AU),Reference Signal (unitless),Sample Signal (unitless)
901.841,1.41025,99968.0,3887
905.754,1.356067,108993.0,4801
909.663,1.36067,118185.0,5151
913.568,1.37364,129285.0,5469
917.469,1.35143,143347.0,6382
921.365,1.39306,160437.0,6490
925.257,1.39354,180387.0,7289
929.144,1.38201,201426.0,8358
933.028,1.36758,220694.0,9467
936.906,1.3497,237501.0,10616
942.072,1.35624,256956.0,11314
945.94,1.3384,270636.0,12416
949.805,1.35579,283621.0,12501
953.665,1.34336,296982.0,13470
957.521,1.34277,310733.0,14113
961.373,1.33958,324587.0,14851
965.22,1.3334,339205.0,15742
969.063,1.33809,353669.0,16237
972.902,1.340837,368253.0,16800
976.736,1.33762,382531.0,17581
981.842,1.33877,399901.0,18331
985.666,1.33485,411528.0,19035
989.486,1.34578,422199.0,19043
993.302,1.324,431172.0,20448
997.113,1.34015,438051.0,20016
1000.92,1.34885,444216.0,19895
1004.72,1.3308,449307.0,20977
1008.52,1.3392,453601.0,20772
1012.32,1.34374,456801.0,20701
1016.11,1.33807,459312.0,21088
1021.15,1.34553,461643.0,20834
1024.93,1.34248,463069.0,21046
1028.71,1.3372,463868.0,21340
1032.48,1.348384,464326.0,20818
1036.24,1.33415,466001.0,21589
1040.01,1.34731,466870.0,20984
1043.77,1.34707,467033.0,21003
1047.52,1.34508,467045.0,21100
1051.27,1.35726,467467.0,20535
1055.01,1.34735,467627.0,21016
1060,1.34742,468351.0,21045
1063.74,1.34698,469050.0,21098
1067.47,1.34779,469880.0,21096
1071.19,1.34577,471228.0,21255
1074.92,1.34857,472558.0,21178
1078.63,1.34421,474087.0,21461
1082.35,1.34573,476569.0,21498
1086.06,1.35148,479445.0,21343
1089.76,1.34884,481756.0,21577
1093.46,1.34909,485147.0,21716
1098.39,1.354,489755.0,21676
1102.08,1.3491,493535.0,22091
1105.77,1.353714,497426.0,22030
1109.45,1.34548,501308.0,22627
1113.13,1.35351,505725.0,22408
1116.8,1.357,509421.0,22391
1120.47,1.35311,513217.0,22761
1124.13,1.35103,517470.0,23060
1127.79,1.35614,521690.0,22976
1131.45,1.359434,526099.0,22995
1136.32,1.36085,531329.0,23148
1139.96,1.36157,535549.0,23293
1143.61,1.365611,539808.0,23261
1147.24,1.37052,543900.0,23174
1150.88,1.36688,547908.0,23541
1154.5,1.37249,552170.0,23420
1158.13,1.37989,556773.0,23216
1161.75,1.39412,561098.0,22642
1165.36,1.39114,565898.0,22993
1168.98,1.39083,571300.0,23229
1172.58,1.4104,576602.0,22412
1177.39,1.41133,584320.0,22663
1180.98,1.42413,589396.0,22196
1184.58,1.42209,596143.0,22556
1188.16,1.43342,602955.0,22226
1191.75,1.45222,609704.0,21523
1195.33,1.4552,617215.0,21639
1198.9,1.46475,624471.0,21417
1202.48,1.48772,632472.0,20574
1206.04,1.514781,640381.0,19573
1209.61,1.52125,648161.0,19518
1214.35,1.53495,659999.0,19257
1217.9,1.52879,668609.0,19787
1221.45,1.51029,677405.0,20920
1224.99,1.49523,686281.0,21942
1228.53,1.47365,695317.0,23363
1232.07,1.45309,704063.0,24804
1235.6,1.43634,713007.0,26107
1239.13,1.42119,721330.0,27349
1242.65,1.41749,730030.0,27916
1246.17,1.414589,737591.0,28394
1250.85,1.41233,746809.0,28899
1254.36,1.406299,753336.0,29559
1257.86,1.40284,759907.0,30055
1261.36,1.40167,766538.0,30399
1264.86,1.40385,774802.0,30573
1268.35,1.40343,784025.0,30967
1271.83,1.39426,794336.0,32044
1275.32,1.39936,804198.0,32063
1278.79,1.39749,813836.0,32587
1282.27,1.39568,823595.0,33116
1286.89,1.39952,834533.0,33260
1290.36,1.40035,842581.0,33517
1293.81,1.39952,849301.0,33849
1297.27,1.39656,856026.0,34350
1300.72,1.39808,862498.0,34489
1304.17,1.40258,868068.0,34354
1307.61,1.40289,872869.0,34519
1311.05,1.4009,877616.0,34866
1314.48,1.39862,881872.0,35220
1317.91,1.39633,885520.0,35552
1322.47,1.40064,888917.0,35336
1325.89,1.39705,891687.0,35741
1329.31,1.401,894001.0,35509
1332.72,1.39799,895438.0,35813
1336.12,1.39809,896641.0,35853
1339.52,1.40018,897974.0,35734
1342.92,1.39746,898777.0,35991
1346.31,1.39798,898783.0,35948
1349.7,1.40425,898350.0,35416
1353.09,1.4104,896784.0,34857
1357.59,1.40403,895293.0,35313
1360.97,1.41124,892755.0,34633
1364.34,1.4141,890430.0,34316
1367.7,1.41866,888504.0,33884
1371.06,1.41873,885825.0,33777
1374.42,1.431102,881046.0,32651
1377.77,1.43577,874030.0,32045
1381.12,1.44788,865751.0,30868
1384.47,1.470778,857799.0,29014
1387.81,1.47512,851759.0,28523
1392.25,1.49197,846500.0,27268
1395.58,1.50122,843622.0,26603
1398.91,1.49386,841228.0,26981
1402.23,1.48827,838489.0,27241
1405.55,1.48321,836065.0,27481
1408.86,1.48813,834396.0,27117
1412.17,1.49931,832187.0,26358
1415.47,1.5028,830123.0,26082
1418.77,1.51528,828244.0,25286
1422.07,1.50469,827314.0,25881
1426.45,1.50941,826435.0,25574
1429.74,1.50068,825475.0,26063
1433.02,1.5028,824938.0,25919
1436.29,1.50569,823959.0,25717
1439.57,1.50641,823822.0,25670
1442.83,1.49551,823184.0,26302
1446.1,1.49178,821953.0,26489
1449.36,1.4823,821135.0,27047
1452.61,1.48898,819413.0,26578
1455.86,1.48312,817492.0,26876
1459.11,1.48435,814862.0,26714
1463.43,1.47657,811075.0,27070
1466.67,1.4727,807671.0,27198
1469.9,1.46453,803699.0,27578
1473.13,1.47135,799396.0,27003
1476.35,1.458821,795129.0,27645
1479.57,1.46161,790127.0,27295
1482.78,1.45872,784937.0,27297
1486,1.45855,779544.0,27120
1489.2,1.45731,773733.0,26995
1492.4,1.45855,767463.0,26700
1496.67,1.46323,758614.0,26109
1499.86,1.45649,751802.0,26279
1503.04,1.451081,744297.0,26343
1506.23,1.45084,735980.0,26063
1509.41,1.45842,728040.0,25336
1512.58,1.4596,719703.0,24978
1515.75,1.45488,710982.0,24945
1518.92,1.4617,702409.0,24260
1522.08,1.45589,693280.0,24267
1525.24,1.4621,683935.0,23600
1529.44,1.4623,671492.0,23160
1532.59,1.47254,661352.0,22279
1535.73,1.46276,650841.0,22424
1538.87,1.47248,640156.0,21568
1542,1.469644,629036.0,21332
1545.13,1.46601,617445.0,21115
1548.26,1.46768,605527.0,20628
1551.38,1.46183,594133.0,20514
1554.49,1.46573,582894.0,19946
1557.61,1.46748,571271.0,19470
1561.75,1.459,555940.0,19321
1564.85,1.45887,544812.0,18940
1567.95,1.4612,533402.0,18444
1571.05,1.46079,521915.0,18064
1574.14,1.46682,510788.0,17435
1577.22,1.45584,499607.0,17490
1580.3,1.46019,487992.0,16913
1583.38,1.45952,476265.0,16532
1586.45,1.46279,464618.0,16007
1589.52,1.46489,452782.0,15524
1593.6,1.46403,436897.0,15009
1596.66,1.45101,425551.0,15064
1599.71,1.45231,414191.0,14618
1602.76,1.4598,402799.0,13973
1605.81,1.45037,391352.0,13874
1608.85,1.45115,380811.0,13476
1611.89,1.45385,370076.0,13015
1614.92,1.45565,359798.0,12601
1617.95,1.46617,349165.0,11936
1620.97,1.45711,338717.0,11823
1624.99,1.45045,325435.0,11535
1628.01,1.459574,315463.0,10949
1631.02,1.453783,305570.0,10748
1634.02,1.47601,295762.0,9884
1637.02,1.45397,286306.0,10066
1640.02,1.46837,276696.0,9411
1643.01,1.45284,267004.0,9412
1646,1.45236,257531.0,9088
1648.98,1.45908,247817.0,8611
1651.96,1.47351,238547.0,8018
1655.93,1.50239,225092.0,7079
1658.89,1.476423,214425.0,7159
1661.86,1.46183,202241.0,6983
1664.82,1.44457,188046.0,6756
1667.78,1.45788,171566.0,5978
1670.73,1.440316,154101.0,5591
1673.67,1.44166,134892.0,4879
1676.62,1.408518,115325.0,4502
1679.56,1.38879,97255.0,3973
1682.49,1.34202,81017.0,3686
1686.4,1.37335,63571.0,2691
1689.32,1.45612,53566.0,1874
1692.24,1.53606,45493.0,1324
1695.16,1.34354,39217.0,1778
1698.07,1.45734,33537.0,1170
1700.97,1.62594,29118.0,689