File: Data/LLDPE/LLDPE14_Column 1_20211230_113739.csv
***Scan Config Information***,,,,,,,***Reference Scan Information***,,,,,,,,
Scan Config Name:,Column 1,,,,,,Scan Config Name:,Built-in Factory Reference,,,,,,
Scan Config Type:,Slew,Num Section:,1,,,,Scan Config Type:,Slew,Num Section:,1,,,,,
Section Config Type:,Column,,,,,,Section Config Type:,Column,,,,,,,
Start Wavelength (nm):,900,,,,,,Start Wavelength (nm):,900.0,,,,,,
End Wavelength (nm):,1700,,,,,,End Wavelength (nm):,1700.0,,,,,,
Pattern Width (nm):,7.03,,,,,,Pattern Width (nm):,7.03,,,,,,,
Exposure (ms):,0.635,,,,,,Exposure (ms):,0.635,,,,,,,
Digital Resolution:,228,,,,,,Digital Resolution:,228,,,,,,,
Num Repeats:,6,,,,,,Num Repeats:,30,,,,,,,
PGA Gain:,64,,,,,,PGA Gain:,64,,,,,,
System Temp (C):,30.65,,,,,,System Temp (C):,24.17,,,,,,,
Humidity (%):,36.53,,,,,,Humidity (%):,30.0,,,,,,
Battery Capacity (%):,53,,,,,,Lamp Intensity:,2449,,,,,,,
Lamp Intensity:,2620,,,,,,Data Date-Time:,19/12/12T12:44:54,,,,,,
Data Date-Time:,18/1/1T7:16:58,,,,,,,,,,,,,,
Total Measurement Time in sec:,4.476,,,,,,,,,,,,,
***General Information***,,,,,,,***Calibration Coefficients***,,,,,,,,
Model Name:,NIR-S-G1,,,,,,Shift Vector Coefficients:,-8.44101,0.0554567,-8.45244e-05,,,,,
Serial Number:,947R055,95UB122GC0A947R055,,,,,Pixel to Wavelength Coefficients:,1795.87,-0.92014,-0.00023961,,,,,
APP Version:,2.16.7,,,,,,,,,,,,,
TIVA Version:,2.4.4,,,,,,***Lamp Usage * **,,,,,,,,
UUID:,de:67:c:88:67:2c:2d:21,,,,,,Total Time(HH:MM:SS):,14min 7sec ,,,,,,,
Main Board Version:,D,,,,,,***Device/Error Status***,,,,,,,,
Detector Board Version:,B,,,,,,Device Status:,0x00000031,,,,,,
,,,,,,,Error status:,0x00000000,Error Code:,0x00000000000000000000000000000000,,,,,
,,,,,,,,,Error Details:,Not Found,,,,,
***Scan Data***,,,,,,,,,,,,,,,
Wavelength (nm),Absorbance (AU),Reference Signal (unitless),Sample Signal (unitless)
901.841,1.384753,99968.0,4122
905.754,1.36827,108993.0,4668
909.663,1.37065,118185.0,5034
913.568,1.35804,129285.0,5669
917.469,1.382456,143347.0,5942
921.365,1.38523,160437.0,6608
925.257,1.39623,180387.0,7244
929.144,1.37511,201426.0,8492
933.028,1.383177,220694.0,9133
936.906,1.36486,237501.0,10252
942.072,1.35963,256956.0,11226
945.94,1.36157,270636.0,11771
949.805,1.36086,283621.0,12356
953.665,1.3497,296982.0,13275
957.521,1.34704,310733.0,13975
961.373,1.351794,324587.0,14439
965.22,1.34971,339205.0,15162
969.063,1.34301,353669.0,16054
972.902,1.34827,368253.0,16515
976.736,1.34881,382531.0,17134
981.842,1.3542,399901.0,17691
985.666,1.3454,411528.0,18578
989.486,1.34583,422199.0,19041
993.302,1.34153,431172.0,19639
997.113,1.35236,438051.0,19461
1000.92,1.34833,444216.0,19919
1004.72,1.35321,449307.0,19922
1008.52,1.340389,453601.0,20715
1012.32,1.34516,456801.0,20633
1016.11,1.350587,459312.0,20489
1021.15,1.34449,461643.0,20884
1024.93,1.35254,463069.0,20564
1028.71,1.357382,463868.0,20371
1032.48,1.351966,464326.0,20647
1036.24,1.351034,466001.0,20766
1040.01,1.34876,466870.0,20914
1043.77,1.36085,467033.0,20347
1047.52,1.35805,467045.0,20479
1051.27,1.35527,467467.0,20629
1055.01,1.36457,467627.0,20199
1060,1.36233,468351.0,20335
1063.74,1.36308,469050.0,20330
1067.47,1.36265,469880.0,20386
1071.19,1.35789,471228.0,20670
1074.92,1.3562,472558.0,20809
1078.63,1.36787,474087.0,20323
1082.35,1.364596,476569.0,20584
1086.06,1.36003,479445.0,20927
1089.76,1.35743,481756.0,21154
1093.46,1.36471,485147.0,20949
1098.39,1.36518,489755.0,21125
1102.08,1.35818,493535.0,21634
1105.77,1.36304,497426.0,21562
1109.45,1.36041,501308.0,21862
1113.13,1.35563,505725.0,22299
1116.8,1.36986,509421.0,21738
1120.47,1.3604,513217.0,22382
1124.13,1.36812,517470.0,22170
1127.79,1.36367,521690.0,22581
1131.45,1.37185,526099.0,22347
1136.32,1.37156,531329.0,22584
1139.96,1.36766,535549.0,22969
1143.61,1.3655,539808.0,23267
1147.24,1.38018,543900.0,22664
1150.88,1.38861,547908.0,22392
1154.5,1.38804,552170.0,22596
1158.13,1.38719,556773.0,22829
1161.75,1.39858,561098.0,22411
1165.36,1.41198,565898.0,21916
1168.98,1.40716,571300.0,22372
1172.58,1.410667,576602.0,22398
1177.39,1.41197,584320.0,22630
1180.98,1.42238,589396.0,22286
1184.58,1.43184,596143.0,22055
1188.16,1.43875,602955.0,21955
1191.75,1.453105,609704.0,21479
1195.33,1.45667,617215.0,21566
1198.9,1.47868,624471.0,20741
1202.48,1.49625,632472.0,20174
1206.04,1.503718,640381.0,20078
1209.61,1.52856,648161.0,19192
1214.35,1.53565,659999.0,19226
1217.9,1.5239,668609.0,20011
1221.45,1.51183,677405.0,20846
1224.99,1.48988,686281.0,22214
1228.53,1.471078,695317.0,23502
1232.07,1.44995,704063.0,24984
1235.6,1.44606,713007.0,25529
1239.13,1.4398,721330.0,26202
1242.65,1.4264,730030.0,27349
1246.17,1.42318,737591.0,27838
1250.85,1.41456,746809.0,28751
1254.36,1.41241,753336.0,29146
1257.86,1.41051,759907.0,29529
1261.36,1.414035,766538.0,29546
1264.86,1.40849,774802.0,30248
1268.35,1.4121,784025.0,30355
1271.83,1.41037,794336.0,30877
1275.32,1.406639,804198.0,31530
1278.79,1.40814,813836.0,31798
1282.27,1.404807,823595.0,32427
1286.89,1.40189,834533.0,33079
1290.36,1.40535,842581.0,33133
1293.81,1.40732,849301.0,33246
1297.27,1.409795,856026.0,33319
1300.72,1.40743,862498.0,33754
1304.17,1.40412,868068.0,34232
1307.61,1.40512,872869.0,34342
1311.05,1.408961,877616.0,34225
1314.48,1.40001,881872.0,35107
1317.91,1.40706,885520.0,34685
1322.47,1.40698,888917.0,34824
1325.89,1.40867,891687.0,34797
1329.31,1.40717,894001.0,35008
1332.72,1.40555,895438.0,35195
1336.12,1.41024,896641.0,34864
1339.52,1.4097,897974.0,34959
1342.92,1.41246,898777.0,34769
1346.31,1.41047,898783.0,34929
1349.7,1.40971,898350.0,34973
1353.09,1.41423,896784.0,34551
1357.59,1.41289,895293.0,34600
1360.97,1.41814,892755.0,34087
1364.34,1.42223,890430.0,33680
1367.7,1.42689,888504.0,33248
1371.06,1.43146,885825.0,32801
1374.42,1.4364,881046.0,32255
1377.77,1.44309,874030.0,31509
1381.12,1.45594,865751.0,30301
1384.47,1.46286,857799.0,29548
1387.81,1.48448,851759.0,27915
1392.25,1.49899,846500.0,26831
1395.58,1.50293,843622.0,26498
1398.91,1.49334,841228.0,27013
1402.23,1.491282,838489.0,27053
1405.55,1.483,836065.0,27494
1408.86,1.49634,834396.0,26609
1412.17,1.49724,832187.0,26484
1415.47,1.5068,830123.0,25843
1418.77,1.51106,828244.0,25533
1422.07,1.50765,827314.0,25705
1426.45,1.50117,826435.0,26064
1429.74,1.50451,825475.0,25834
1433.02,1.50394,824938.0,25851
1436.29,1.50128,823959.0,25979
1439.57,1.49966,823822.0,26072
1442.83,1.49763,823184.0,26174
1446.1,1.49365,821953.0,26375
1449.36,1.49225,821135.0,26434
1452.61,1.48323,819413.0,26932
1455.86,1.49016,817492.0,26444
1459.11,1.48389,814862.0,26742
1463.43,1.48159,811075.0,26759
1466.67,1.47435,807671.0,27095
1469.9,1.46855,803699.0,27324
1473.13,1.4666,799396.0,27300
1476.35,1.47051,795129.0,26911
1479.57,1.45941,790127.0,27434
1482.78,1.461337,784937.0,27133
1486,1.46487,779544.0,26728
1489.2,1.46346,773733.0,26615
1492.4,1.46225,767463.0,26473
1496.67,1.46094,758614.0,26247
1499.86,1.45605,751802.0,26306
1503.04,1.4592,744297.0,25855
1506.23,1.46628,735980.0,25153
1509.41,1.46079,728040.0,25198
1512.58,1.460135,719703.0,24947
1515.75,1.47044,710982.0,24067
1518.92,1.46077,702409.0,24312
1522.08,1.465556,693280.0,23733
1525.24,1.46137,683935.0,23640
1529.44,1.46443,671492.0,23047
1532.59,1.4572,661352.0,23080
1535.73,1.468,650841.0,22155
1538.87,1.473262,640156.0,21529
1542,1.46701,629036.0,21462
1545.13,1.47158,617445.0,20846
1548.26,1.46461,605527.0,20774
1551.38,1.46963,594133.0,20149
1554.49,1.45335,582894.0,20523
1557.61,1.45915,571271.0,19847
1561.75,1.46035,555940.0,19261
1564.85,1.45674,544812.0,19033
1567.95,1.46617,533402.0,18234
1571.05,1.46482,521915.0,17897
1574.14,1.45699,510788.0,17834
1577.22,1.45688,499607.0,17448
1580.3,1.45999,487992.0,16921
1583.38,1.47094,476265.0,16103
1586.45,1.44628,464618.0,16627
1589.52,1.458912,452782.0,15739
1593.6,1.47065,436897.0,14782
1596.66,1.45376,425551.0,14969
1599.71,1.45691,414191.0,14464
1602.76,1.473053,402799.0,13553
1605.81,1.461366,391352.0,13527
1608.85,1.47452,380811.0,12770
1611.89,1.46054,370076.0,12816
1614.92,1.46187,359798.0,12422
1617.95,1.46403,349165.0,11995
1620.97,1.47115,338717.0,11447
1624.99,1.46824,325435.0,11072
1628.01,1.471966,315463.0,10641
1631.02,1.45634,305570.0,10685
1634.02,1.47857,295762.0,9826
1637.02,1.46845,286306.0,9736
1640.02,1.45483,276696.0,9709
1643.01,1.48307,267004.0,8779
1646,1.47973,257531.0,8533
1648.98,1.46753,247817.0,8445
1651.96,1.47682,238547.0,7957
1655.93,1.47418,225092.0,7554
1658.89,1.47746,214425.0,7142
1661.86,1.44165,202241.0,7315
1664.82,1.44361,188046.0,6771
1667.78,1.44875,171566.0,6105
1670.73,1.425352,154101.0,5787
1673.67,1.40834,134892.0,5268
1676.62,1.42795,115325.0,4305
1679.56,1.36653,97255.0,4182
1682.49,1.38927,81017.0,3306
1686.4,1.40654,63571.0,2493
1689.32,1.36716,53566.0,2300
1692.24,1.44099,45493.0,1648
1695.16,1.42175,39217.0,1485
1698.07,1.43952,33537.0,1219
1700.97,1.55461,29118.0,812