File: Data/LLDPE/LLDPE5_Column 1_20211230_113527.csv
***Scan Config Information***,,,,,,,***Reference Scan Information***,,,,,,,,
Scan Config Name:,Column 1,,,,,,Scan Config Name:,Built-in Factory Reference,,,,,,
Scan Config Type:,Slew,Num Section:,1,,,,Scan Config Type:,Slew,Num Section:,1,,,,,
Section Config Type:,Column,,,,,,Section Config Type:,Column,,,,,,,
Start Wavelength (nm):,900,,,,,,Start Wavelength (nm):,900.0,,,,,,
End Wavelength (nm):,1700,,,,,,End Wavelength (nm):,1700.0,,,,,,
Pattern Width (nm):,7.03,,,,,,Pattern Width (nm):,7.03,,,,,,,
Exposure (ms):,0.635,,,,,,Exposure (ms):,0.635,,,,,,,
Digital Resolution:,228,,,,,,Digital Resolution:,228,,,,,,,
Num Repeats:,6,,,,,,Num Repeats:,30,,,,,,,
PGA Gain:,64,,,,,,PGA Gain:,64,,,,,,
System Temp (C):,29.4,,,,,,System Temp (C):,24.17,,,,,,,
Humidity (%):,36.82,,,,,,Humidity (%):,30.0,,,,,,
Battery Capacity (%):,55,,,,,,Lamp Intensity:,2449,,,,,,,
Lamp Intensity:,2598,,,,,,Data Date-Time:,19/12/12T12:44:54,,,,,,
Data Date-Time:,18/1/1T7:14:46,,,,,,,,,,,,,,
Total Measurement Time in sec:,4.204,,,,,,,,,,,,,
***General Information***,,,,,,,***Calibration Coefficients***,,,,,,,,
Model Name:,NIR-S-G1,,,,,,Shift Vector Coefficients:,-8.44101,0.0554567,-8.45244e-05,,,,,
Serial Number:,947R055,95UB122GC0A947R055,,,,,Pixel to Wavelength Coefficients:,1795.87,-0.92014,-0.00023961,,,,,
APP Version:,2.16.7,,,,,,,,,,,,,
TIVA Version:,2.4.4,,,,,,***Lamp Usage * **,,,,,,,,
UUID:,de:67:c:88:67:2c:2d:21,,,,,,Total Time(HH:MM:SS):,13min 47sec ,,,,,,,
Main Board Version:,D,,,,,,***Device/Error Status***,,,,,,,,
Detector Board Version:,B,,,,,,Device Status:,0x00000031,,,,,,
,,,,,,,Error status:,0x00000000,Error Code:,0x00000000000000000000000000000000,,,,,
,,,,,,,,,Error Details:,Not Found,,,,,
***Scan Data***,,,,,,,,,,,,,,,
Wavelength (nm),Absorbance (AU),Reference Signal (unitless),Sample Signal (unitless)
901.841,1.4384,99968.0,3643
905.754,1.41456,108993.0,4196
909.663,1.40065,118185.0,4698
913.568,1.42652,129285.0,4842
917.469,1.45707,143347.0,5004
921.365,1.40894,160437.0,6257
925.257,1.418743,180387.0,6878
929.144,1.43747,201426.0,7356
933.028,1.42513,220694.0,8292
936.906,1.439001,237501.0,8643
942.072,1.42457,256956.0,9667
945.94,1.40082,270636.0,10754
949.805,1.39885,283621.0,11321
953.665,1.39074,296982.0,12078
957.521,1.40383,310733.0,12262
961.373,1.3864,324587.0,13333
965.22,1.403779,339205.0,13387
969.063,1.38475,353669.0,14583
972.902,1.39886,368253.0,14699
976.736,1.38824,382531.0,15647
981.842,1.39526,399901.0,16095
985.666,1.40817,411528.0,16078
989.486,1.38961,422199.0,17215
993.302,1.39796,431172.0,17246
997.113,1.39355,438051.0,17700
1000.92,1.39756,444216.0,17784
1004.72,1.39877,449307.0,17938
1008.52,1.39943,453601.0,18082
1012.32,1.40349,456801.0,18040
1016.11,1.39821,459312.0,18361
1021.15,1.39975,461643.0,18389
1024.93,1.39267,463069.0,18749
1028.71,1.39674,463868.0,18606
1032.48,1.40596,464326.0,18233
1036.24,1.40089,466001.0,18514
1040.01,1.40355,466870.0,18435
1043.77,1.4121,467033.0,18082
1047.52,1.42028,467045.0,17745
1051.27,1.41226,467467.0,18092
1055.01,1.40404,467627.0,18444
1060,1.40512,468351.0,18427
1063.74,1.40306,469050.0,18542
1067.47,1.40376,469880.0,18545
1071.19,1.40641,471228.0,18485
1074.92,1.41238,472558.0,18284
1078.63,1.41144,474087.0,18383
1082.35,1.41145,476569.0,18479
1086.06,1.40959,479445.0,18670
1089.76,1.41601,481756.0,18485
1093.46,1.41936,485147.0,18472
1098.39,1.41951,489755.0,18641
1102.08,1.41782,493535.0,18858
1105.77,1.41818,497426.0,18991
1109.45,1.41244,501308.0,19394
1113.13,1.41462,505725.0,19467
1116.8,1.41954,509421.0,19388
1120.47,1.41652,513217.0,19669
1124.13,1.42139,517470.0,19611
1127.79,1.42487,521690.0,19613
1131.45,1.42467,526099.0,19788
1136.32,1.4249,531329.0,19974
1139.96,1.42085,535549.0,20321
1143.61,1.42299,539808.0,20382
1147.24,1.42905,543900.0,20252
1150.88,1.43746,547908.0,20010
1154.5,1.43873,552170.0,20107
1158.13,1.44179,556773.0,20132
1161.75,1.458826,561098.0,19508
1165.36,1.45566,565898.0,19819
1168.98,1.47252,571300.0,19246
1172.58,1.47218,576602.0,19440
1177.39,1.4795,584320.0,19371
1180.98,1.49316,589396.0,18934
1184.58,1.49343,596143.0,19139
1188.16,1.50327,602955.0,18924
1191.75,1.520679,609704.0,18384
1195.33,1.52562,617215.0,18400
1198.9,1.53542,624471.0,18201
1202.48,1.551305,632472.0,17772
1206.04,1.569448,640381.0,17258
1209.61,1.5943,648161.0,16496
1214.35,1.595684,659999.0,16744
1217.9,1.59391,668609.0,17032
1221.45,1.57802,677405.0,17899
1224.99,1.55252,686281.0,19230
1228.53,1.532787,695317.0,20389
1232.07,1.52593,704063.0,20974
1235.6,1.504711,713007.0,22304
1239.13,1.49781,721330.0,22926
1242.65,1.48977,730030.0,23636
1246.17,1.48808,737591.0,23974
1250.85,1.48093,746809.0,24676
1254.36,1.47936,753336.0,24982
1257.86,1.48131,759907.0,25087
1261.36,1.47103,766538.0,25912
1264.86,1.4788,774802.0,25727
1268.35,1.48167,784025.0,25862
1271.83,1.47563,794336.0,26569
1275.32,1.480514,804198.0,26598
1278.79,1.4757,813836.0,27217
1282.27,1.47534,823595.0,27566
1286.89,1.46995,834533.0,28281
1290.36,1.4677,842581.0,28702
1293.81,1.47426,849301.0,28497
1297.27,1.47013,856026.0,28997
1300.72,1.47566,862498.0,28847
1304.17,1.47653,868068.0,28975
1307.61,1.47349,872869.0,29340
1311.05,1.47209,877616.0,29595
1314.48,1.47809,881872.0,29330
1317.91,1.47959,885520.0,29350
1322.47,1.46811,888917.0,30252
1325.89,1.47648,891687.0,29767
1329.31,1.47978,894001.0,29618
1332.72,1.47886,895438.0,29729
1336.12,1.47287,896641.0,30182
1339.52,1.47842,897974.0,29843
1342.92,1.47441,898777.0,30147
1346.31,1.478536,898783.0,29862
1349.7,1.47952,898350.0,29780
1353.09,1.47557,896784.0,30000
1357.59,1.48529,895293.0,29287
1360.97,1.48156,892755.0,29456
1364.34,1.48563,890430.0,29105
1367.7,1.4885,888504.0,28851
1371.06,1.49484,885825.0,28347
1374.42,1.49506,881046.0,28180
1377.77,1.50608,874030.0,27255
1381.12,1.52042,865751.0,26120
1384.47,1.53252,857799.0,25169
1387.81,1.54516,851759.0,24275
1392.25,1.57193,846500.0,22683
1395.58,1.57314,843622.0,22543
1398.91,1.55472,841228.0,23453
1402.23,1.54805,838489.0,23738
1405.55,1.54665,836065.0,23746
1408.86,1.55538,834396.0,23227
1412.17,1.572969,832187.0,22246
1415.47,1.567,830123.0,22498
1418.77,1.58284,828244.0,21643
1422.07,1.573121,827314.0,22108
1426.45,1.56427,826435.0,22539
1429.74,1.57088,825475.0,22173
1433.02,1.56689,824938.0,22363
1436.29,1.56908,823959.0,22224
1439.57,1.5613,823822.0,22622
1442.83,1.5601,823184.0,22667
1446.1,1.562761,821953.0,22495
1449.36,1.5542,821135.0,22920
1452.61,1.55153,819413.0,23013
1455.86,1.54316,817492.0,23406
1459.11,1.54283,814862.0,23348
1463.43,1.54111,811075.0,23332
1466.67,1.535871,807671.0,23516
1469.9,1.53839,803699.0,23265
1473.13,1.52154,799396.0,24056
1476.35,1.52753,795129.0,23600
1479.57,1.5324,790127.0,23190
1482.78,1.52514,784937.0,23426
1486,1.52022,779544.0,23530
1489.2,1.52741,773733.0,22971
1492.4,1.5194,767463.0,23209
1496.67,1.52254,758614.0,22776
1499.86,1.51562,751802.0,22934
1503.04,1.51629,744297.0,22670
1506.23,1.51407,735980.0,22532
1509.41,1.52084,728040.0,21944
1512.58,1.51969,719703.0,21750
1515.75,1.51594,710982.0,21673
1518.92,1.52441,702409.0,20998
1522.08,1.52114,693280.0,20882
1525.24,1.5135,683935.0,20966
1529.44,1.53328,671492.0,19668
1532.59,1.52445,661352.0,19769
1535.73,1.524042,650841.0,19473
1538.87,1.52762,640156.0,18996
1542,1.5323,629036.0,18466
1545.13,1.52324,617445.0,18508
1548.26,1.51864,605527.0,18344
1551.38,1.52395,594133.0,17780
1554.49,1.50909,582894.0,18051
1557.61,1.51592,571271.0,17415
1561.75,1.523379,555940.0,16659
1564.85,1.51766,544812.0,16542
1567.95,1.50734,533402.0,16585
1571.05,1.51842,521915.0,15819
1574.14,1.51601,510788.0,15568
1577.22,1.52402,499607.0,14949
1580.3,1.50832,487992.0,15139
1583.38,1.525438,476265.0,14204
1586.45,1.52826,464618.0,13767
1589.52,1.51585,452782.0,13805
1593.6,1.52248,436897.0,13119
1596.66,1.51786,425551.0,12915
1599.71,1.50999,414191.0,12800
1602.76,1.53027,402799.0,11880
1605.81,1.5229,391352.0,11740
1608.85,1.52228,380811.0,11440
1611.89,1.5171,370076.0,11251
1614.92,1.51629,359798.0,10959
1617.95,1.525,349165.0,10424
1620.97,1.52836,338717.0,10034
1624.99,1.52,325435.0,9828
1628.01,1.53464,315463.0,9211
1631.02,1.52279,305570.0,9169
1634.02,1.54188,295762.0,8493
1637.02,1.52304,286306.0,8586
1640.02,1.53186,276696.0,8131
1643.01,1.538788,267004.0,7722
1646,1.52479,257531.0,7692
1648.98,1.5419,247817.0,7116
1651.96,1.53722,238547.0,6924
1655.93,1.5426,225092.0,6453
1658.89,1.55103,214425.0,6029
1661.86,1.5549,202241.0,5636
1664.82,1.524605,188046.0,5619
1667.78,1.56511,171566.0,4670
1670.73,1.573858,154101.0,4111
1673.67,1.52717,134892.0,4007
1676.62,1.50166,115325.0,3633
1679.56,1.43125,97255.0,3603
1682.49,1.47067,81017.0,2741
1686.4,1.54919,63571.0,1795
1689.32,1.531333,53566.0,1576
1692.24,1.4868,45493.0,1483
1695.16,1.55885,39217.0,1083
1698.07,1.58801,33537.0,866
1700.97,1.55999,29118.0,802