File: Data/LLDPE/LLDPE3_Column 1_20211230_113458.csv
***Scan Config Information***,,,,,,,***Reference Scan Information***,,,,,,,,
Scan Config Name:,Column 1,,,,,,Scan Config Name:,Built-in Factory Reference,,,,,,
Scan Config Type:,Slew,Num Section:,1,,,,Scan Config Type:,Slew,Num Section:,1,,,,,
Section Config Type:,Column,,,,,,Section Config Type:,Column,,,,,,,
Start Wavelength (nm):,900,,,,,,Start Wavelength (nm):,900.0,,,,,,
End Wavelength (nm):,1700,,,,,,End Wavelength (nm):,1700.0,,,,,,
Pattern Width (nm):,7.03,,,,,,Pattern Width (nm):,7.03,,,,,,,
Exposure (ms):,0.635,,,,,,Exposure (ms):,0.635,,,,,,,
Digital Resolution:,228,,,,,,Digital Resolution:,228,,,,,,,
Num Repeats:,6,,,,,,Num Repeats:,30,,,,,,,
PGA Gain:,64,,,,,,PGA Gain:,64,,,,,,
System Temp (C):,29.11,,,,,,System Temp (C):,24.17,,,,,,,
Humidity (%):,36.84,,,,,,Humidity (%):,30.0,,,,,,
Battery Capacity (%):,55,,,,,,Lamp Intensity:,2449,,,,,,,
Lamp Intensity:,2593,,,,,,Data Date-Time:,19/12/12T12:44:54,,,,,,
Data Date-Time:,18/1/1T7:14:17,,,,,,,,,,,,,,
Total Measurement Time in sec:,4.978,,,,,,,,,,,,,
***General Information***,,,,,,,***Calibration Coefficients***,,,,,,,,
Model Name:,NIR-S-G1,,,,,,Shift Vector Coefficients:,-8.44101,0.0554567,-8.45244e-05,,,,,
Serial Number:,947R055,95UB122GC0A947R055,,,,,Pixel to Wavelength Coefficients:,1795.87,-0.92014,-0.00023961,,,,,
APP Version:,2.16.7,,,,,,,,,,,,,
TIVA Version:,2.4.4,,,,,,***Lamp Usage * **,,,,,,,,
UUID:,de:67:c:88:67:2c:2d:21,,,,,,Total Time(HH:MM:SS):,13min 43sec ,,,,,,,
Main Board Version:,D,,,,,,***Device/Error Status***,,,,,,,,
Detector Board Version:,B,,,,,,Device Status:,0x00000031,,,,,,
,,,,,,,Error status:,0x00000000,Error Code:,0x00000000000000000000000000000000,,,,,
,,,,,,,,,Error Details:,Not Found,,,,,
***Scan Data***,,,,,,,,,,,,,,,
Wavelength (nm),Absorbance (AU),Reference Signal (unitless),Sample Signal (unitless)
901.841,1.32317,99968.0,4750
905.754,1.36549,108993.0,4698
909.663,1.29856,118185.0,5943
913.568,1.34663,129285.0,5820
917.469,1.31609,143347.0,6923
921.365,1.35742,160437.0,7045
925.257,1.33525,180387.0,8336
929.144,1.344073,201426.0,9121
933.028,1.34895,220694.0,9882
936.906,1.32109,237501.0,11339
942.072,1.325211,256956.0,12152
945.94,1.31894,270636.0,12985
949.805,1.31847,283621.0,13623
953.665,1.323511,296982.0,14100
957.521,1.30074,310733.0,15547
961.373,1.31721,324587.0,15636
965.22,1.31085,339205.0,16581
969.063,1.30439,353669.0,17547
972.902,1.31604,368253.0,17787
976.736,1.30248,382531.0,19063
981.842,1.30157,399901.0,19970
985.666,1.30656,411528.0,20316
989.486,1.30775,422199.0,20786
993.302,1.30672,431172.0,21278
997.113,1.30977,438051.0,21466
1000.92,1.31049,444216.0,21732
1004.72,1.30373,449307.0,22326
1008.52,1.30679,453601.0,22381
1012.32,1.30797,456801.0,22478
1016.11,1.31464,459312.0,22257
1021.15,1.30367,461643.0,22942
1024.93,1.31757,463069.0,22288
1028.71,1.31735,463868.0,22338
1032.48,1.31377,464326.0,22545
1036.24,1.32141,466001.0,22232
1040.01,1.31908,466870.0,22393
1043.77,1.321959,467033.0,22253
1047.52,1.31689,467045.0,22515
1051.27,1.31682,467467.0,22539
1055.01,1.31851,467627.0,22459
1060,1.31327,468351.0,22767
1063.74,1.31287,469050.0,22822
1067.47,1.33218,469880.0,21868
1071.19,1.3182,471228.0,22648
1074.92,1.31563,472558.0,22847
1078.63,1.31504,474087.0,22952
1082.35,1.32216,476569.0,22697
1086.06,1.32273,479445.0,22804
1089.76,1.32596,481756.0,22744
1093.46,1.32039,485147.0,23200
1098.39,1.32393,489755.0,23230
1102.08,1.3191,493535.0,23671
1105.77,1.328237,497426.0,23361
1109.45,1.32234,501308.0,23865
1113.13,1.32365,505725.0,24003
1116.8,1.32454,509421.0,24129
1120.47,1.32582,513217.0,24237
1124.13,1.33425,517470.0,23968
1127.79,1.33274,521690.0,24248
1131.45,1.33118,526099.0,24541
1136.32,1.33046,531329.0,24826
1139.96,1.3351,535549.0,24757
1143.61,1.33158,539808.0,25157
1147.24,1.33593,543900.0,25095
1150.88,1.33326,547908.0,25436
1154.5,1.33587,552170.0,25480
1158.13,1.35402,556773.0,24641
1161.75,1.35747,561098.0,24636
1165.36,1.3691,565898.0,24190
1168.98,1.36999,571300.0,24371
1172.58,1.37434,576602.0,24352
1177.39,1.37531,584320.0,24623
1180.98,1.38441,589396.0,24322
1184.58,1.39425,596143.0,24049
1188.16,1.40314,602955.0,23831
1191.75,1.42079,609704.0,23138
1195.33,1.42525,617215.0,23184
1198.9,1.439123,624471.0,22719
1202.48,1.45136,632472.0,22371
1206.04,1.47108,640381.0,21645
1209.61,1.48547,648161.0,21194
1214.35,1.497324,659999.0,21000
1217.9,1.47817,668609.0,22233
1221.45,1.47728,677405.0,22572
1224.99,1.45465,686281.0,24091
1228.53,1.43301,695317.0,25655
1232.07,1.41129,704063.0,27310
1235.6,1.400311,713007.0,28365
1239.13,1.39403,721330.0,29114
1242.65,1.38466,730030.0,30108
1246.17,1.377155,737591.0,30950
1250.85,1.37162,746809.0,31739
1254.36,1.36519,753336.0,32494
1257.86,1.36271,759907.0,32965
1261.36,1.36457,766538.0,33110
1264.86,1.36552,774802.0,33394
1268.35,1.36201,784025.0,34066
1271.83,1.358213,794336.0,34817
1275.32,1.36002,804198.0,35103
1278.79,1.36658,813836.0,34991
1282.27,1.36443,823595.0,35586
1286.89,1.36224,834533.0,36241
1290.36,1.35916,842581.0,36851
1293.81,1.355633,849301.0,37448
1297.27,1.36072,856026.0,37305
1300.72,1.35928,862498.0,37712
1304.17,1.3635,868068.0,37588
1307.61,1.36165,872869.0,37958
1311.05,1.35729,877616.0,38549
1314.48,1.364378,881872.0,38109
1317.91,1.36061,885520.0,38600
1322.47,1.360119,888917.0,38792
1325.89,1.36113,891687.0,38822
1329.31,1.36034,894001.0,38994
1332.72,1.361517,895438.0,38951
1336.12,1.36456,896641.0,38731
1339.52,1.36238,897974.0,38984
1342.92,1.359768,898777.0,39254
1346.31,1.36124,898783.0,39121
1349.7,1.36571,898350.0,38702
1353.09,1.3672,896784.0,38502
1357.59,1.36796,895293.0,38371
1360.97,1.37088,892755.0,38006
1364.34,1.37885,890430.0,37218
1367.7,1.37878,888504.0,37143
1371.06,1.38009,885825.0,36920
1374.42,1.3907,881046.0,35834
1377.77,1.39649,874030.0,35078
1381.12,1.40753,865751.0,33874
1384.47,1.4226,857799.0,32418
1387.81,1.44016,851759.0,30914
1392.25,1.461917,846500.0,29222
1395.58,1.45863,843622.0,29344
1398.91,1.44916,841228.0,29906
1402.23,1.44483,838489.0,30107
1405.55,1.44791,836065.0,29808
1408.86,1.44711,834396.0,29803
1412.17,1.45687,832187.0,29064
1415.47,1.46593,830123.0,28393
1418.77,1.46651,828244.0,28291
1422.07,1.46886,827314.0,28107
1426.45,1.46696,826435.0,28200
1429.74,1.45929,825475.0,28669
1433.02,1.46349,824938.0,28375
1436.29,1.45752,823959.0,28733
1439.57,1.459437,823822.0,28602
1442.83,1.452276,823184.0,29055
1446.1,1.45493,821953.0,28835
1449.36,1.44409,821135.0,29534
1452.61,1.44589,819413.0,29350
1455.86,1.44021,817492.0,29667
1459.11,1.43554,814862.0,29891
1463.43,1.42972,811075.0,30154
1466.67,1.43438,807671.0,29707
1469.9,1.43142,803699.0,29763
1473.13,1.42336,799396.0,30158
1476.35,1.42638,795129.0,29789
1479.57,1.4222,790127.0,29888
1482.78,1.41938,784937.0,29885
1486,1.41933,779544.0,29683
1489.2,1.420702,773733.0,29369
1492.4,1.42181,767463.0,29057
1496.67,1.41819,758614.0,28962
1499.86,1.42191,751802.0,28457
1503.04,1.41035,744297.0,28933
1506.23,1.41568,735980.0,28261
1509.41,1.41899,728040.0,27744
1512.58,1.41918,719703.0,27414
1515.75,1.41945,710982.0,27065
1518.92,1.42379,702409.0,26473
1522.08,1.41983,693280.0,26368
1525.24,1.42033,683935.0,25983
1529.44,1.43096,671492.0,24893
1532.59,1.42392,661352.0,24918
1535.73,1.43444,650841.0,23935
1538.87,1.43637,640156.0,23438
1542,1.4389,629036.0,22897
1545.13,1.43008,617445.0,22936
1548.26,1.42154,605527.0,22940
1551.38,1.42178,594133.0,22496
1554.49,1.424452,582894.0,21935
1557.61,1.42344,571271.0,21548
1561.75,1.41861,555940.0,21204
1564.85,1.42116,544812.0,20658
1567.95,1.42001,533402.0,20279
1571.05,1.4277,521915.0,19494
1574.14,1.41661,510788.0,19572
1577.22,1.41372,499607.0,19271
1580.3,1.418503,487992.0,18617
1583.38,1.42132,476265.0,18052
1586.45,1.41719,464618.0,17779
1589.52,1.42434,452782.0,17043
1593.6,1.41751,436897.0,16706
1596.66,1.41666,425551.0,16304
1599.71,1.4172,414191.0,15849
1602.76,1.42125,402799.0,15270
1605.81,1.42484,391352.0,14714
1608.85,1.42395,380811.0,14347
1611.89,1.4157,370076.0,14210
1614.92,1.42144,359798.0,13634
1617.95,1.43002,349165.0,12972
1620.97,1.4171,338717.0,12964
1624.99,1.42259,325435.0,12299
1628.01,1.41886,315463.0,12025
1631.02,1.43893,305570.0,11122
1634.02,1.42056,295762.0,11230
1637.02,1.419165,286306.0,10906
1640.02,1.41957,276696.0,10530
1643.01,1.418642,267004.0,10183
1646,1.45644,257531.0,9003
1648.98,1.43186,247817.0,9168
1651.96,1.43284,238547.0,8805
1655.93,1.42136,225092.0,8531
1658.89,1.429327,214425.0,7979
1661.86,1.4343,202241.0,7440
1664.82,1.42917,188046.0,7000
1667.78,1.432479,171566.0,6338
1670.73,1.40533,154101.0,6060
1673.67,1.36417,134892.0,5832
1676.62,1.37502,115325.0,4863
1679.56,1.37207,97255.0,4129
1682.49,1.38301,81017.0,3354
1686.4,1.38248,63571.0,2635
1689.32,1.35635,53566.0,2358
1692.24,1.57052,45493.0,1223
1695.16,1.32583,39217.0,1852
1698.07,1.443098,33537.0,1209
1700.97,1.73419,29118.0,537