File: Data/PP/PP10_Column 1_20211230_113024.csv
***Scan Config Information***,,,,,,,***Reference Scan Information***,,,,,,,,
Scan Config Name:,Column 1,,,,,,Scan Config Name:,Built-in Factory Reference,,,,,,
Scan Config Type:,Slew,Num Section:,1,,,,Scan Config Type:,Slew,Num Section:,1,,,,,
Section Config Type:,Column,,,,,,Section Config Type:,Column,,,,,,,
Start Wavelength (nm):,900,,,,,,Start Wavelength (nm):,900.0,,,,,,
End Wavelength (nm):,1700,,,,,,End Wavelength (nm):,1700.0,,,,,,
Pattern Width (nm):,7.03,,,,,,Pattern Width (nm):,7.03,,,,,,,
Exposure (ms):,0.635,,,,,,Exposure (ms):,0.635,,,,,,,
Digital Resolution:,228,,,,,,Digital Resolution:,228,,,,,,,
Num Repeats:,6,,,,,,Num Repeats:,30,,,,,,,
PGA Gain:,64,,,,,,PGA Gain:,64,,,,,,
System Temp (C):,26.69,,,,,,System Temp (C):,24.17,,,,,,,
Humidity (%):,38.84,,,,,,Humidity (%):,30.0,,,,,,
Battery Capacity (%):,57,,,,,,Lamp Intensity:,2449,,,,,,,
Lamp Intensity:,2552,,,,,,Data Date-Time:,19/12/12T12:44:54,,,,,,
Data Date-Time:,18/1/1T7:9:42,,,,,,,,,,,,,,
Total Measurement Time in sec:,5.198,,,,,,,,,,,,,
***General Information***,,,,,,,***Calibration Coefficients***,,,,,,,,
Model Name:,NIR-S-G1,,,,,,Shift Vector Coefficients:,-8.44101,0.0554567,-8.45244e-05,,,,,
Serial Number:,947R055,95UB122GC0A947R055,,,,,Pixel to Wavelength Coefficients:,1795.87,-0.92014,-0.00023961,,,,,
APP Version:,2.16.7,,,,,,,,,,,,,
TIVA Version:,2.4.4,,,,,,***Lamp Usage * **,,,,,,,,
UUID:,de:67:c:88:67:2c:2d:21,,,,,,Total Time(HH:MM:SS):,13min 12sec ,,,,,,,
Main Board Version:,D,,,,,,***Device/Error Status***,,,,,,,,
Detector Board Version:,B,,,,,,Device Status:,0x00000031,,,,,,
,,,,,,,Error status:,0x00000000,Error Code:,0x00000000000000000000000000000000,,,,,
,,,,,,,,,Error Details:,Not Found,,,,,
***Scan Data***,,,,,,,,,,,,,,,
Wavelength (nm),Absorbance (AU),Reference Signal (unitless),Sample Signal (unitless)
901.841,1.56116,99968.0,2746
905.754,1.48388,108993.0,3577
909.663,1.525773,118185.0,3522
913.568,1.55621,129285.0,3592
917.469,1.479878,143347.0,4748
921.365,1.52064,160437.0,4838
925.257,1.54855,180387.0,5101
929.144,1.521858,201426.0,6057
933.028,1.50696,220694.0,6868
936.906,1.52197,237501.0,7140
942.072,1.5146,256956.0,7857
945.94,1.50042,270636.0,8550
949.805,1.50761,283621.0,8813
953.665,1.4956,296982.0,9487
957.521,1.48554,310733.0,10159
961.373,1.474822,324587.0,10877
965.22,1.493,339205.0,10901
969.063,1.49513,353669.0,11310
972.902,1.49867,368253.0,11681
976.736,1.49759,382531.0,12164
981.842,1.49788,399901.0,12708
985.666,1.49733,411528.0,13094
989.486,1.48962,422199.0,13674
993.302,1.493389,431172.0,13844
997.113,1.509361,438051.0,13557
1000.92,1.49314,444216.0,14271
1004.72,1.48602,449307.0,14673
1008.52,1.486559,453601.0,14795
1012.32,1.50555,456801.0,14262
1016.11,1.4934,459312.0,14747
1021.15,1.50231,461643.0,14521
1024.93,1.50156,463069.0,14591
1028.71,1.50554,463868.0,14483
1032.48,1.50525,464326.0,14507
1036.24,1.49912,466001.0,14766
1040.01,1.49952,466870.0,14780
1043.77,1.4917,467033.0,15054
1047.52,1.50367,467045.0,14645
1051.27,1.49412,467467.0,14984
1055.01,1.50483,467627.0,14624
1060,1.49105,468351.0,15119
1063.74,1.50491,469050.0,14666
1067.47,1.50609,469880.0,14652
1071.19,1.50674,471228.0,14672
1074.92,1.50314,472558.0,14836
1078.63,1.50604,474087.0,14785
1082.35,1.491339,476569.0,15374
1086.06,1.51776,479445.0,14554
1089.76,1.505637,481756.0,15038
1093.46,1.50903,485147.0,15026
1098.39,1.50455,489755.0,15326
1102.08,1.50769,493535.0,15333
1105.77,1.50918,497426.0,15401
1109.45,1.50823,501308.0,15555
1113.13,1.49453,505725.0,16195
1116.8,1.50394,509421.0,15964
1120.47,1.5071,513217.0,15966
1124.13,1.50936,517470.0,16015
1127.79,1.51509,521690.0,15934
1131.45,1.50981,526099.0,16265
1136.32,1.52446,531329.0,15882
1139.96,1.523189,535549.0,16055
1143.61,1.52222,539808.0,16219
1147.24,1.53926,543900.0,15713
1150.88,1.54419,547908.0,15650
1154.5,1.53972,552170.0,15935
1158.13,1.54771,556773.0,15775
1161.75,1.55234,561098.0,15729
1165.36,1.56218,565898.0,15508
1168.98,1.55986,571300.0,15740
1172.58,1.58038,576602.0,15153
1177.39,1.57998,584320.0,15370
1180.98,1.60522,589396.0,14628
1184.58,1.60123,596143.0,14932
1188.16,1.62489,602955.0,14302
1191.75,1.62498,609704.0,14459
1195.33,1.6402,617215.0,14133
1198.9,1.62563,624471.0,14787
1202.48,1.62426,632472.0,15024
1206.04,1.608414,640381.0,15777
1209.61,1.62753,648161.0,15281
1214.35,1.61908,659999.0,15866
1217.9,1.62043,668609.0,16023
1221.45,1.60106,677405.0,16974
1224.99,1.59496,686281.0,17440
1228.53,1.59037,695317.0,17857
1232.07,1.580299,704063.0,18506
1235.6,1.55874,713007.0,19695
1239.13,1.561425,721330.0,19802
1242.65,1.55557,730030.0,20313
1246.17,1.5457,737591.0,20995
1250.85,1.55265,746809.0,20920
1254.36,1.54332,753336.0,21561
1257.86,1.53139,759907.0,22355
1261.36,1.53392,766538.0,22419
1264.86,1.53512,774802.0,22598
1268.35,1.52922,784025.0,23180
1271.83,1.52339,794336.0,23802
1275.32,1.52463,804198.0,24029
1278.79,1.52986,813836.0,24026
1282.27,1.52564,823595.0,24551
1286.89,1.52092,834533.0,25149
1290.36,1.52743,842581.0,25014
1293.81,1.52106,849301.0,25586
1297.27,1.52445,856026.0,25588
1300.72,1.51756,862498.0,26194
1304.17,1.51896,868068.0,26278
1307.61,1.52433,872869.0,26099
1311.05,1.52603,877616.0,26138
1314.48,1.52466,881872.0,26348
1317.91,1.51991,885520.0,26748
1322.47,1.52142,888917.0,26757
1325.89,1.526148,891687.0,26550
1329.31,1.52236,894001.0,26852
1332.72,1.51817,895438.0,27156
1336.12,1.52578,896641.0,26720
1339.52,1.529805,897974.0,26513
1342.92,1.52557,898777.0,26797
1346.31,1.52539,898783.0,26808
1349.7,1.53151,898350.0,26420
1353.09,1.54257,896784.0,25711
1357.59,1.55409,895293.0,24996
1360.97,1.56205,892755.0,24473
1364.34,1.56785,890430.0,24085
1367.7,1.57316,888504.0,23741
1371.06,1.58278,885825.0,23151
1374.42,1.5876,881046.0,22772
1377.77,1.60477,874030.0,21715
1381.12,1.60439,865751.0,21528
1384.47,1.61637,857799.0,20750
1387.81,1.60924,851759.0,20945
1392.25,1.62281,846500.0,20175
1395.58,1.62874,843622.0,19834
1398.91,1.62979,841228.0,19730
1402.23,1.61583,838489.0,20308
1405.55,1.61766,836065.0,20164
1408.86,1.60645,834396.0,20650
1412.17,1.606164,832187.0,20609
1415.47,1.60616,830123.0,20558
1418.77,1.60719,828244.0,20463
1422.07,1.59242,827314.0,21147
1426.45,1.59661,826435.0,20922
1429.74,1.59364,825475.0,21041
1433.02,1.58277,824938.0,21560
1436.29,1.593645,823959.0,21002
1439.57,1.59482,823822.0,20942
1442.83,1.58659,823184.0,21326
1446.1,1.57869,821953.0,21685
1449.36,1.56609,821135.0,22301
1452.61,1.57433,819413.0,21836
1455.86,1.57498,817492.0,21752
1459.11,1.56489,814862.0,22192
1463.43,1.56432,811075.0,22118
1466.67,1.56061,807671.0,22214
1469.9,1.567195,803699.0,21772
1473.13,1.56079,799396.0,21977
1476.35,1.55381,795129.0,22214
1479.57,1.562,790127.0,21662
1482.78,1.55164,784937.0,22039
1486,1.55378,779544.0,21780
1489.2,1.54868,773733.0,21873
1492.4,1.553003,767463.0,21481
1496.67,1.54851,758614.0,21454
1499.86,1.54173,751802.0,21596
1503.04,1.54008,744297.0,21462
1506.23,1.53938,735980.0,21256
1509.41,1.532493,728040.0,21363
1512.58,1.54194,719703.0,20664
1515.75,1.537212,710982.0,20637
1518.92,1.528005,702409.0,20825
1522.08,1.53614,693280.0,20173
1525.24,1.52713,683935.0,20318
1529.44,1.51809,671492.0,20368
1532.59,1.53011,661352.0,19513
1535.73,1.52733,650841.0,19326
1538.87,1.52109,640156.0,19284
1542,1.52593,629036.0,18739
1545.13,1.52078,617445.0,18613
1548.26,1.51755,605527.0,18390
1551.38,1.52346,594133.0,17800
1554.49,1.52168,582894.0,17535
1557.61,1.52008,571271.0,17249
1561.75,1.52657,555940.0,16537
1564.85,1.5069,544812.0,16957
1567.95,1.52438,533402.0,15947
1571.05,1.52983,521915.0,15409
1574.14,1.51752,510788.0,15514
1577.22,1.51957,499607.0,15103
1580.3,1.5248,487992.0,14575
1583.38,1.5181,476265.0,14446
1586.45,1.53705,464618.0,13491
1589.52,1.52376,452782.0,13556
1593.6,1.53178,436897.0,12841
1596.66,1.53225,425551.0,12494
1599.71,1.51866,414191.0,12547
1602.76,1.530601,402799.0,11871
1605.81,1.53032,391352.0,11541
1608.85,1.54165,380811.0,10941
1611.89,1.512798,370076.0,11363
1614.92,1.52123,359798.0,10835
1617.95,1.53447,349165.0,10199
1620.97,1.51389,338717.0,10374
1624.99,1.51819,325435.0,9869
1628.01,1.53829,315463.0,9134
1631.02,1.53092,305570.0,8999
1634.02,1.52233,295762.0,8884
1637.02,1.53686,286306.0,8317
1640.02,1.524655,276696.0,8267
1643.01,1.539407,267004.0,7711
1646,1.518902,257531.0,7797
1648.98,1.54959,247817.0,6991
1651.96,1.55079,238547.0,6711
1655.93,1.54226,225092.0,6458
1658.89,1.50501,214425.0,6703
1661.86,1.54184,202241.0,5808
1664.82,1.51271,188046.0,5775
1667.78,1.4966,171566.0,5468
1670.73,1.50956,154101.0,4767
1673.67,1.51194,134892.0,4150
1676.62,1.45673,115325.0,4029
1679.56,1.46313,97255.0,3348
1682.49,1.51255,81017.0,2489
1686.4,1.51211,63571.0,1955
1689.32,1.52368,53566.0,1604
1692.24,1.495679,45493.0,1453
1695.16,1.60048,39217.0,984
1698.07,1.55193,33537.0,941
1700.97,1.66139,29118.0,635