File: Data/PP/PP15_Column 1_20211230_113134.csv
***Scan Config Information***,,,,,,,***Reference Scan Information***,,,,,,,,
Scan Config Name:,Column 1,,,,,,Scan Config Name:,Built-in Factory Reference,,,,,,
Scan Config Type:,Slew,Num Section:,1,,,,Scan Config Type:,Slew,Num Section:,1,,,,,
Section Config Type:,Column,,,,,,Section Config Type:,Column,,,,,,,
Start Wavelength (nm):,900,,,,,,Start Wavelength (nm):,900.0,,,,,,
End Wavelength (nm):,1700,,,,,,End Wavelength (nm):,1700.0,,,,,,
Pattern Width (nm):,7.03,,,,,,Pattern Width (nm):,7.03,,,,,,,
Exposure (ms):,0.635,,,,,,Exposure (ms):,0.635,,,,,,,
Digital Resolution:,228,,,,,,Digital Resolution:,228,,,,,,,
Num Repeats:,6,,,,,,Num Repeats:,30,,,,,,,
PGA Gain:,64,,,,,,PGA Gain:,64,,,,,,
System Temp (C):,27.51,,,,,,System Temp (C):,24.17,,,,,,,
Humidity (%):,38.44,,,,,,Humidity (%):,30.0,,,,,,
Battery Capacity (%):,56,,,,,,Lamp Intensity:,2449,,,,,,,
Lamp Intensity:,2567,,,,,,Data Date-Time:,19/12/12T12:44:54,,,,,,
Data Date-Time:,18/1/1T7:10:54,,,,,,,,,,,,,,
Total Measurement Time in sec:,4.258,,,,,,,,,,,,,
***General Information***,,,,,,,***Calibration Coefficients***,,,,,,,,
Model Name:,NIR-S-G1,,,,,,Shift Vector Coefficients:,-8.44101,0.0554567,-8.45244e-05,,,,,
Serial Number:,947R055,95UB122GC0A947R055,,,,,Pixel to Wavelength Coefficients:,1795.87,-0.92014,-0.00023961,,,,,
APP Version:,2.16.7,,,,,,,,,,,,,
TIVA Version:,2.4.4,,,,,,***Lamp Usage * **,,,,,,,,
UUID:,de:67:c:88:67:2c:2d:21,,,,,,Total Time(HH:MM:SS):,13min 23sec ,,,,,,,
Main Board Version:,D,,,,,,***Device/Error Status***,,,,,,,,
Detector Board Version:,B,,,,,,Device Status:,0x00000031,,,,,,
,,,,,,,Error status:,0x00000000,Error Code:,0x00000000000000000000000000000000,,,,,
,,,,,,,,,Error Details:,Not Found,,,,,
***Scan Data***,,,,,,,,,,,,,,,
Wavelength (nm),Absorbance (AU),Reference Signal (unitless),Sample Signal (unitless)
901.841,1.397801,99968.0,4000
905.754,1.49012,108993.0,3526
909.663,1.4679,118185.0,4024
913.568,1.45979,129285.0,4485
917.469,1.479878,143347.0,4748
921.365,1.45287,160437.0,5655
925.257,1.44921,180387.0,6412
929.144,1.499908,201426.0,6371
933.028,1.44853,220694.0,7857
936.906,1.46472,237501.0,8146
942.072,1.45177,256956.0,9080
945.94,1.46306,270636.0,9318
949.805,1.44941,283621.0,10077
953.665,1.46588,296982.0,10159
957.521,1.45218,310733.0,10970
961.373,1.46343,324587.0,11166
965.22,1.44987,339205.0,12039
969.063,1.45117,353669.0,12515
972.902,1.45928,368253.0,12790
976.736,1.44345,382531.0,13779
981.842,1.44976,399901.0,14197
985.666,1.47067,411528.0,13923
989.486,1.46406,422199.0,14503
993.302,1.44676,431172.0,15413
997.113,1.46439,438051.0,15036
1000.92,1.46738,444216.0,15143
1004.72,1.46488,449307.0,15405
1008.52,1.468815,453601.0,15412
1012.32,1.466686,456801.0,15597
1016.11,1.46178,459312.0,15861
1021.15,1.46038,461643.0,15993
1024.93,1.45745,463069.0,16151
1028.71,1.45774,463868.0,16168
1032.48,1.45325,464326.0,16352
1036.24,1.46305,466001.0,16045
1040.01,1.46581,466870.0,15973
1043.77,1.46295,467033.0,16084
1047.52,1.4638,467045.0,16053
1051.27,1.47107,467467.0,15801
1055.01,1.4617,467627.0,16151
1060,1.46901,468351.0,15906
1063.74,1.4658,469050.0,16048
1067.47,1.4643,469880.0,16132
1071.19,1.46107,471228.0,16299
1074.92,1.465396,472558.0,16183
1078.63,1.45903,474087.0,16475
1082.35,1.45904,476569.0,16561
1086.06,1.46871,479445.0,16294
1089.76,1.48239,481756.0,15865
1093.46,1.470553,485147.0,16418
1098.39,1.46958,489755.0,16611
1102.08,1.4684,493535.0,16785
1105.77,1.46495,497426.0,17052
1109.45,1.46236,501308.0,17288
1113.13,1.46846,505725.0,17197
1116.8,1.46377,509421.0,17511
1120.47,1.45981,513217.0,17803
1124.13,1.47702,517470.0,17253
1127.79,1.481329,521690.0,17222
1131.45,1.47026,526099.0,17816
1136.32,1.46903,531329.0,18044
1139.96,1.48073,535549.0,17704
1143.61,1.49144,539808.0,17410
1147.24,1.50088,543900.0,17165
1150.88,1.499258,547908.0,17356
1154.5,1.502323,552170.0,17368
1158.13,1.51144,556773.0,17149
1161.75,1.51488,561098.0,17146
1165.36,1.51196,565898.0,17409
1168.98,1.52344,571300.0,17117
1172.58,1.529738,576602.0,17027
1177.39,1.55191,584320.0,16396
1180.98,1.55575,589396.0,16393
1184.58,1.56755,596143.0,16136
1188.16,1.57709,602955.0,15966
1191.75,1.58171,609704.0,15974
1195.33,1.59512,617215.0,15679
1198.9,1.58608,624471.0,16197
1202.48,1.581745,632472.0,16569
1206.04,1.58235,640381.0,16753
1209.61,1.581694,648161.0,16982
1214.35,1.5824,659999.0,17264
1217.9,1.58015,668609.0,17580
1221.45,1.571924,677405.0,18152
1224.99,1.541573,686281.0,19721
1228.53,1.54029,695317.0,20040
1232.07,1.53569,704063.0,20508
1235.6,1.5227,713007.0,21399
1239.13,1.5192,721330.0,21824
1242.65,1.50841,730030.0,22643
1246.17,1.50853,737591.0,22871
1250.85,1.50639,746809.0,23271
1254.36,1.50461,753336.0,23571
1257.86,1.500513,759907.0,24002
1261.36,1.49707,766538.0,24404
1264.86,1.50063,774802.0,24466
1268.35,1.4989,784025.0,24856
1271.83,1.49004,794336.0,25702
1275.32,1.48876,804198.0,26098
1278.79,1.48798,813836.0,26458
1282.27,1.49171,823595.0,26546
1286.89,1.49018,834533.0,26994
1290.36,1.48908,842581.0,27323
1293.81,1.493249,849301.0,27278
1297.27,1.48287,856026.0,28159
1300.72,1.48419,862498.0,28286
1304.17,1.48429,868068.0,28462
1307.61,1.48853,872869.0,28341
1311.05,1.48671,877616.0,28615
1314.48,1.48419,881872.0,28921
1317.91,1.48049,885520.0,29289
1322.47,1.491373,888917.0,28674
1325.89,1.49156,891687.0,28751
1329.31,1.48454,894001.0,29295
1332.72,1.49863,895438.0,28406
1336.12,1.49551,896641.0,28649
1339.52,1.49345,897974.0,28828
1342.92,1.49458,898777.0,28779
1346.31,1.49328,898783.0,28865
1349.7,1.494219,898350.0,28789
1353.09,1.506928,896784.0,27910
1357.59,1.52057,895293.0,27002
1360.97,1.52773,892755.0,26485
1364.34,1.54204,890430.0,25560
1367.7,1.5466,888504.0,25238
1371.06,1.55085,885825.0,24917
1374.42,1.5536,881046.0,24626
1377.77,1.564129,874030.0,23845
1381.12,1.572842,865751.0,23150
1384.47,1.58111,857799.0,22505
1387.81,1.5763,851759.0,22595
1392.25,1.59031,846500.0,21743
1395.58,1.59761,843622.0,21308
1398.91,1.596,841228.0,21326
1402.23,1.59239,838489.0,21434
1405.55,1.57279,836065.0,22359
1408.86,1.57217,834396.0,22346
1412.17,1.571624,832187.0,22315
1415.47,1.57888,830123.0,21891
1418.77,1.57032,828244.0,22276
1422.07,1.57102,827314.0,22215
1426.45,1.55467,826435.0,23043
1429.74,1.568438,825475.0,22298
1433.02,1.56003,824938.0,22719
1436.29,1.5558,823959.0,22914
1439.57,1.55994,823822.0,22693
1442.83,1.54809,823184.0,23303
1446.1,1.55384,821953.0,22962
1449.36,1.54919,821135.0,23186
1452.61,1.549346,819413.0,23129
1455.86,1.537021,817492.0,23739
1459.11,1.54259,814862.0,23361
1463.43,1.54228,811075.0,23269
1466.67,1.53454,807671.0,23588
1469.9,1.53377,803699.0,23514
1473.13,1.54109,799396.0,22997
1476.35,1.52393,795129.0,23796
1479.57,1.52231,790127.0,23735
1482.78,1.5291,784937.0,23213
1486,1.52887,779544.0,23066
1489.2,1.52643,773733.0,23023
1492.4,1.52186,767463.0,23078
1496.67,1.52321,758614.0,22741
1499.86,1.51494,751802.0,22970
1503.04,1.52067,744297.0,22443
1506.23,1.50912,735980.0,22790
1509.41,1.51063,728040.0,22466
1512.58,1.50784,719703.0,22352
1515.75,1.50918,710982.0,22013
1518.92,1.51159,702409.0,21627
1522.08,1.51098,693280.0,21376
1525.24,1.50751,683935.0,21257
1529.44,1.51319,671492.0,20599
1532.59,1.49588,661352.0,21113
1535.73,1.50314,650841.0,20433
1538.87,1.50225,640156.0,20139
1542,1.49969,629036.0,19906
1545.13,1.50262,617445.0,19408
1548.26,1.50008,605527.0,19145
1551.38,1.49122,594133.0,19172
1554.49,1.486996,582894.0,18993
1557.61,1.49556,571271.0,18251
1561.75,1.491157,555940.0,17942
1564.85,1.50483,544812.0,17038
1567.95,1.502392,533402.0,16775
1571.05,1.49611,521915.0,16653
1574.14,1.49749,510788.0,16246
1577.22,1.49337,499607.0,16042
1580.3,1.49086,487992.0,15760
1583.38,1.49881,476265.0,15102
1586.45,1.50218,464618.0,14619
1589.52,1.49106,452782.0,14616
1593.6,1.50976,436897.0,13509
1596.66,1.49239,425551.0,13695
1599.71,1.50189,414191.0,13041
1602.76,1.49914,402799.0,12763
1605.81,1.48965,391352.0,12674
1608.85,1.51145,380811.0,11729
1611.89,1.50402,370076.0,11595
1614.92,1.50684,359798.0,11200
1617.95,1.49994,349165.0,11043
1620.97,1.52461,338717.0,10121
1624.99,1.50943,325435.0,10070
1628.01,1.521728,315463.0,9489
1631.02,1.52928,305570.0,9033
1634.02,1.533224,295762.0,8664
1637.02,1.51811,286306.0,8684
1640.02,1.52016,276696.0,8353
1643.01,1.54059,267004.0,7690
1646,1.54084,257531.0,7413
1648.98,1.51429,247817.0,7583
1651.96,1.5273,238547.0,7084
1655.93,1.54152,225092.0,6469
1658.89,1.51537,214425.0,6545
1661.86,1.48738,202241.0,6584
1664.82,1.51793,188046.0,5706
1667.78,1.50051,171566.0,5419
1670.73,1.484,154101.0,5056
1673.67,1.49652,134892.0,4300
1676.62,1.50695,115325.0,3589
1679.56,1.46469,97255.0,3336
1682.49,1.54855,81017.0,2291
1686.4,1.53095,63571.0,1872
1689.32,1.4856,53566.0,1751
1692.24,1.59162,45493.0,1165
1695.16,1.65047,39217.0,877
1698.07,1.65629,33537.0,740
1700.97,1.68529,29118.0,601