File: Data/PP/PP16_Column 1_20211230_113149.csv
***Scan Config Information***,,,,,,,***Reference Scan Information***,,,,,,,,
Scan Config Name:,Column 1,,,,,,Scan Config Name:,Built-in Factory Reference,,,,,,
Scan Config Type:,Slew,Num Section:,1,,,,Scan Config Type:,Slew,Num Section:,1,,,,,
Section Config Type:,Column,,,,,,Section Config Type:,Column,,,,,,,
Start Wavelength (nm):,900,,,,,,Start Wavelength (nm):,900.0,,,,,,
End Wavelength (nm):,1700,,,,,,End Wavelength (nm):,1700.0,,,,,,
Pattern Width (nm):,7.03,,,,,,Pattern Width (nm):,7.03,,,,,,,
Exposure (ms):,0.635,,,,,,Exposure (ms):,0.635,,,,,,,
Digital Resolution:,228,,,,,,Digital Resolution:,228,,,,,,,
Num Repeats:,6,,,,,,Num Repeats:,30,,,,,,,
PGA Gain:,64,,,,,,PGA Gain:,64,,,,,,
System Temp (C):,27.67,,,,,,System Temp (C):,24.17,,,,,,,
Humidity (%):,38.33,,,,,,Humidity (%):,30.0,,,,,,
Battery Capacity (%):,56,,,,,,Lamp Intensity:,2449,,,,,,,
Lamp Intensity:,2569,,,,,,Data Date-Time:,19/12/12T12:44:54,,,,,,
Data Date-Time:,18/1/1T7:11:8,,,,,,,,,,,,,,
Total Measurement Time in sec:,4.171,,,,,,,,,,,,,
***General Information***,,,,,,,***Calibration Coefficients***,,,,,,,,
Model Name:,NIR-S-G1,,,,,,Shift Vector Coefficients:,-8.44101,0.0554567,-8.45244e-05,,,,,
Serial Number:,947R055,95UB122GC0A947R055,,,,,Pixel to Wavelength Coefficients:,1795.87,-0.92014,-0.00023961,,,,,
APP Version:,2.16.7,,,,,,,,,,,,,
TIVA Version:,2.4.4,,,,,,***Lamp Usage * **,,,,,,,,
UUID:,de:67:c:88:67:2c:2d:21,,,,,,Total Time(HH:MM:SS):,13min 25sec ,,,,,,,
Main Board Version:,D,,,,,,***Device/Error Status***,,,,,,,,
Detector Board Version:,B,,,,,,Device Status:,0x00000031,,,,,,
,,,,,,,Error status:,0x00000000,Error Code:,0x00000000000000000000000000000000,,,,,
,,,,,,,,,Error Details:,Not Found,,,,,
***Scan Data***,,,,,,,,,,,,,,,
Wavelength (nm),Absorbance (AU),Reference Signal (unitless),Sample Signal (unitless)
901.841,1.39987,99968.0,3981
905.754,1.44522,108993.0,3910
909.663,1.45851,118185.0,4112
913.568,1.41171,129285.0,5010
917.469,1.419355,143347.0,5458
921.365,1.47622,160437.0,5359
925.257,1.4482,180387.0,6427
929.144,1.44799,201426.0,7180
933.028,1.43929,220694.0,8026
936.906,1.443141,237501.0,8561
942.072,1.43369,256956.0,9466
945.94,1.43365,270636.0,9971
949.805,1.42776,283621.0,10592
953.665,1.4289,296982.0,11062
957.521,1.42853,310733.0,11584
961.373,1.41917,324587.0,12364
965.22,1.41575,339205.0,13023
969.063,1.43878,353669.0,12877
972.902,1.42191,368253.0,13939
976.736,1.430256,382531.0,14204
981.842,1.42795,399901.0,14928
985.666,1.429254,411528.0,15316
989.486,1.4245,422199.0,15886
993.302,1.42704,431172.0,16129
997.113,1.43451,438051.0,16107
1000.92,1.43626,444216.0,16268
1004.72,1.42509,449307.0,16883
1008.52,1.43861,453601.0,16522
1012.32,1.43331,456801.0,16843
1016.11,1.43492,459312.0,16873
1021.15,1.43376,461643.0,17004
1024.93,1.42627,463069.0,17353
1028.71,1.43236,463868.0,17141
1032.48,1.43612,464326.0,17010
1036.24,1.4341,466001.0,17151
1040.01,1.43455,466870.0,17165
1043.77,1.438286,467033.0,17024
1047.52,1.43393,467045.0,17196
1051.27,1.43917,467467.0,17005
1055.01,1.440141,467627.0,16973
1060,1.43366,468351.0,17255
1063.74,1.43609,469050.0,17184
1067.47,1.44423,469880.0,16895
1071.19,1.441303,471228.0,17058
1074.92,1.44164,472558.0,17093
1078.63,1.43836,474087.0,17278
1082.35,1.43271,476569.0,17596
1086.06,1.4507,479445.0,16984
1089.76,1.43731,481756.0,17600
1093.46,1.42952,485147.0,18045
1098.39,1.43625,489755.0,17936
1102.08,1.44507,493535.0,17711
1105.77,1.43335,497426.0,18339
1109.45,1.43484,501308.0,18419
1113.13,1.43931,505725.0,18391
1116.8,1.44007,509421.0,18493
1120.47,1.44076,513217.0,18601
1124.13,1.435795,517470.0,18971
1127.79,1.44869,521690.0,18566
1131.45,1.44633,526099.0,18825
1136.32,1.45599,531329.0,18594
1139.96,1.45819,535549.0,18647
1143.61,1.45605,539808.0,18888
1147.24,1.4564,543900.0,19016
1150.88,1.47607,547908.0,18308
1154.5,1.47373,552170.0,18550
1158.13,1.48503,556773.0,18224
1161.75,1.4826,561098.0,18469
1165.36,1.49754,565898.0,17997
1168.98,1.50625,571300.0,17808
1172.58,1.51026,576602.0,17808
1177.39,1.51297,584320.0,17934
1180.98,1.52502,589396.0,17595
1184.58,1.54692,596143.0,16921
1188.16,1.5669,602955.0,16345
1191.75,1.557181,609704.0,16902
1195.33,1.57264,617215.0,16512
1198.9,1.55845,624471.0,17261
1202.48,1.56405,632472.0,17258
1206.04,1.56794,640381.0,17318
1209.61,1.55465,648161.0,18073
1214.35,1.56299,659999.0,18053
1217.9,1.54977,668609.0,18854
1221.45,1.537707,677405.0,19640
1224.99,1.53038,686281.0,20236
1228.53,1.50855,695317.0,21559
1232.07,1.50122,704063.0,22202
1235.6,1.49623,713007.0,22744
1239.13,1.49223,721330.0,23222
1242.65,1.48656,730030.0,23811
1246.17,1.47449,737591.0,24736
1250.85,1.471344,746809.0,25227
1254.36,1.47598,753336.0,25177
1257.86,1.4681,759907.0,25862
1261.36,1.46488,766538.0,26282
1264.86,1.46925,774802.0,26299
1268.35,1.46668,784025.0,26770
1271.83,1.46445,794336.0,27262
1275.32,1.46489,804198.0,27572
1278.79,1.46731,813836.0,27748
1282.27,1.46064,823595.0,28515
1286.89,1.45755,834533.0,29100
1290.36,1.46169,842581.0,29102
1293.81,1.46497,849301.0,29113
1297.27,1.46174,856026.0,29563
1300.72,1.460901,862498.0,29844
1304.17,1.45909,868068.0,30162
1307.61,1.45136,872869.0,30874
1311.05,1.46127,877616.0,30341
1314.48,1.46487,881872.0,30237
1317.91,1.46525,885520.0,30335
1322.47,1.46357,888917.0,30570
1325.89,1.46247,891687.0,30743
1329.31,1.46138,894001.0,30900
1332.72,1.4556,895438.0,31364
1336.12,1.46077,896641.0,31035
1339.52,1.45509,897974.0,31490
1342.92,1.46385,898777.0,30889
1346.31,1.461845,898783.0,31032
1349.7,1.473108,898350.0,30223
1353.09,1.47802,896784.0,29831
1357.59,1.48716,895293.0,29161
1360.97,1.50524,892755.0,27893
1364.34,1.50328,890430.0,27946
1367.7,1.52311,888504.0,26641
1371.06,1.524184,885825.0,26495
1374.42,1.52617,881046.0,26232
1377.77,1.53868,874030.0,25284
1381.12,1.5492,865751.0,24445
1384.47,1.55086,857799.0,24128
1387.81,1.56054,851759.0,23430
1392.25,1.56266,846500.0,23172
1395.58,1.572828,843622.0,22559
1398.91,1.56686,841228.0,22806
1402.23,1.56644,838489.0,22754
1405.55,1.553507,836065.0,23374
1408.86,1.55138,834396.0,23442
1412.17,1.55307,832187.0,23289
1415.47,1.55891,830123.0,22921
1418.77,1.536574,828244.0,24076
1422.07,1.54031,827314.0,23843
1426.45,1.53734,826435.0,23981
1429.74,1.534813,825475.0,24093
1433.02,1.53699,824938.0,23957
1436.29,1.53067,823959.0,24279
1439.57,1.52645,823822.0,24512
1442.83,1.53032,823184.0,24276
1446.1,1.52582,821953.0,24492
1449.36,1.52706,821135.0,24398
1452.61,1.51898,819413.0,24804
1455.86,1.5171,817492.0,24853
1459.11,1.51628,814862.0,24820
1463.43,1.51793,811075.0,24611
1466.67,1.51282,807671.0,24798
1469.9,1.51439,803699.0,24587
1473.13,1.50574,799396.0,24947
1476.35,1.50337,795129.0,24950
1479.57,1.50314,790127.0,24806
1482.78,1.50768,784937.0,24387
1486,1.50659,779544.0,24280
1489.2,1.50399,773733.0,24244
1492.4,1.505625,767463.0,23957
1496.67,1.49999,758614.0,23990
1499.86,1.49765,751802.0,23903
1503.04,1.4905,744297.0,24057
1506.23,1.48778,735980.0,23938
1509.41,1.49441,728040.0,23321
1512.58,1.48924,719703.0,23330
1515.75,1.49309,710982.0,22844
1518.92,1.49164,702409.0,22644
1522.08,1.48849,693280.0,22512
1525.24,1.47679,683935.0,22815
1529.44,1.4901,671492.0,21724
1532.59,1.48586,661352.0,21606
1535.73,1.48864,650841.0,21127
1538.87,1.4839,640156.0,21008
1542,1.484071,629036.0,20635
1545.13,1.48167,617445.0,20367
1548.26,1.46983,605527.0,20526
1551.38,1.46858,594133.0,20198
1554.49,1.47035,582894.0,19735
1557.61,1.48352,571271.0,18764
1561.75,1.483646,555940.0,18255
1564.85,1.48102,544812.0,17998
1567.95,1.4795,533402.0,17683
1571.05,1.47516,521915.0,17476
1574.14,1.47772,510788.0,17003
1577.22,1.48895,499607.0,16206
1580.3,1.47801,487992.0,16233
1583.38,1.47971,476265.0,15781
1586.45,1.485,464618.0,15209
1589.52,1.47168,452782.0,15283
1593.6,1.49246,436897.0,14058
1596.66,1.48494,425551.0,13932
1599.71,1.48651,414191.0,13511
1602.76,1.50176,402799.0,12686
1605.81,1.4856,391352.0,12793
1608.85,1.48255,380811.0,12536
1611.89,1.49118,370076.0,11943
1614.92,1.49333,359798.0,11554
1617.95,1.50425,349165.0,10934
1620.97,1.49245,338717.0,10899
1624.99,1.51129,325435.0,10027
1628.01,1.48204,315463.0,10397
1631.02,1.49762,305570.0,9716
1634.02,1.50791,295762.0,9184
1637.02,1.5119,286306.0,8809
1640.02,1.51886,276696.0,8378
1643.01,1.50028,267004.0,8438
1646,1.51574,257531.0,7854
1648.98,1.502984,247817.0,7783
1651.96,1.51265,238547.0,7327
1655.93,1.52254,225092.0,6758
1658.89,1.52925,214425.0,6339
1661.86,1.48804,202241.0,6574
1664.82,1.52252,188046.0,5646
1667.78,1.52423,171566.0,5131
1670.73,1.49513,154101.0,4928
1673.67,1.52869,134892.0,3993
1676.62,1.53662,115325.0,3352
1679.56,1.565322,97255.0,2646
1682.49,1.5253,81017.0,2417
1686.4,1.57281,63571.0,1700
1689.32,1.60569,53566.0,1328
1692.24,1.94614,45493.0,515
1695.16,1.85075,39217.0,553
1698.07,1.63399,33537.0,779
1700.97,2.08576,29118.0,239