File: Data/PP/PP17_Column 1_20211230_113203.csv
***Scan Config Information***,,,,,,,***Reference Scan Information***,,,,,,,,
Scan Config Name:,Column 1,,,,,,Scan Config Name:,Built-in Factory Reference,,,,,,
Scan Config Type:,Slew,Num Section:,1,,,,Scan Config Type:,Slew,Num Section:,1,,,,,
Section Config Type:,Column,,,,,,Section Config Type:,Column,,,,,,,
Start Wavelength (nm):,900,,,,,,Start Wavelength (nm):,900.0,,,,,,
End Wavelength (nm):,1700,,,,,,End Wavelength (nm):,1700.0,,,,,,
Pattern Width (nm):,7.03,,,,,,Pattern Width (nm):,7.03,,,,,,,
Exposure (ms):,0.635,,,,,,Exposure (ms):,0.635,,,,,,,
Digital Resolution:,228,,,,,,Digital Resolution:,228,,,,,,,
Num Repeats:,6,,,,,,Num Repeats:,30,,,,,,,
PGA Gain:,64,,,,,,PGA Gain:,64,,,,,,
System Temp (C):,27.82,,,,,,System Temp (C):,24.17,,,,,,,
Humidity (%):,38.23,,,,,,Humidity (%):,30.0,,,,,,
Battery Capacity (%):,56,,,,,,Lamp Intensity:,2449,,,,,,,
Lamp Intensity:,2571,,,,,,Data Date-Time:,19/12/12T12:44:54,,,,,,
Data Date-Time:,18/1/1T7:11:22,,,,,,,,,,,,,,
Total Measurement Time in sec:,4.439,,,,,,,,,,,,,
***General Information***,,,,,,,***Calibration Coefficients***,,,,,,,,
Model Name:,NIR-S-G1,,,,,,Shift Vector Coefficients:,-8.44101,0.0554567,-8.45244e-05,,,,,
Serial Number:,947R055,95UB122GC0A947R055,,,,,Pixel to Wavelength Coefficients:,1795.87,-0.92014,-0.00023961,,,,,
APP Version:,2.16.7,,,,,,,,,,,,,
TIVA Version:,2.4.4,,,,,,***Lamp Usage * **,,,,,,,,
UUID:,de:67:c:88:67:2c:2d:21,,,,,,Total Time(HH:MM:SS):,13min 27sec ,,,,,,,
Main Board Version:,D,,,,,,***Device/Error Status***,,,,,,,,
Detector Board Version:,B,,,,,,Device Status:,0x00000031,,,,,,
,,,,,,,Error status:,0x00000000,Error Code:,0x00000000000000000000000000000000,,,,,
,,,,,,,,,Error Details:,Not Found,,,,,
***Scan Data***,,,,,,,,,,,,,,,
Wavelength (nm),Absorbance (AU),Reference Signal (unitless),Sample Signal (unitless)
901.841,1.74003,99968.0,1819
905.754,1.63376,108993.0,2533
909.663,1.72543,118185.0,2224
913.568,1.66253,129285.0,2812
917.469,1.7111,143347.0,2788
921.365,1.72515,160437.0,3021
925.257,1.76011,180387.0,3134
929.144,1.6742,201426.0,4265
933.028,1.75687,220694.0,3863
936.906,1.76735,237501.0,4058
942.072,1.75004,256956.0,4569
945.94,1.72944,270636.0,5046
949.805,1.69686,283621.0,5700
953.665,1.691909,296982.0,6037
957.521,1.74856,310733.0,5544
961.373,1.71013,324587.0,6327
965.22,1.71735,339205.0,6503
969.063,1.73017,353669.0,6583
972.902,1.7122,368253.0,7144
976.736,1.70749,382531.0,7502
981.842,1.70747,399901.0,7843
985.666,1.70228,411528.0,8168
989.486,1.705133,422199.0,8325
993.302,1.7062,431172.0,8481
997.113,1.74549,438051.0,7871
1000.92,1.71436,444216.0,8575
1004.72,1.7093,449307.0,8775
1008.52,1.71219,453601.0,8800
1012.32,1.700018,456801.0,9114
1016.11,1.72394,459312.0,8673
1021.15,1.7181,461643.0,8835
1024.93,1.71998,463069.0,8824
1028.71,1.70445,463868.0,9161
1032.48,1.72735,464326.0,8699
1036.24,1.718753,466001.0,8905
1040.01,1.72304,466870.0,8834
1043.77,1.71352,467033.0,9033
1047.52,1.70727,467045.0,9164
1051.27,1.7266,467467.0,8773
1055.01,1.74043,467627.0,8501
1060,1.73663,468351.0,8589
1063.74,1.72872,469050.0,8760
1067.47,1.73227,469880.0,8704
1071.19,1.714954,471228.0,9084
1074.92,1.72938,472558.0,8812
1078.63,1.72191,474087.0,8994
1082.35,1.71552,476569.0,9175
1086.06,1.7278,479445.0,8973
1089.76,1.72336,481756.0,9109
1093.46,1.72232,485147.0,9195
1098.39,1.74348,489755.0,8841
1102.08,1.71222,493535.0,9574
1105.77,1.73054,497426.0,9251
1109.45,1.74116,501308.0,9098
1113.13,1.72464,505725.0,9534
1116.8,1.721022,509421.0,9684
1120.47,1.73157,513217.0,9522
1124.13,1.70965,517470.0,10098
1127.79,1.74171,521690.0,9456
1131.45,1.73934,526099.0,9588
1136.32,1.73841,531329.0,9704
1139.96,1.71516,535549.0,10319
1143.61,1.745378,539808.0,9702
1147.24,1.75488,543900.0,9564
1150.88,1.75396,547908.0,9655
1154.5,1.77584,552170.0,9252
1158.13,1.75463,556773.0,9796
1161.75,1.77697,561098.0,9377
1165.36,1.76929,565898.0,9626
1168.98,1.76759,571300.0,9756
1172.58,1.766691,576602.0,9867
1177.39,1.783837,584320.0,9612
1180.98,1.80922,589396.0,9145
1184.58,1.79199,596143.0,9624
1188.16,1.811242,602955.0,9312
1191.75,1.827895,609704.0,9062
1195.33,1.831395,617215.0,9100
1198.9,1.8313,624471.0,9209
1202.48,1.82986,632472.0,9358
1206.04,1.8169,640381.0,9762
1209.61,1.82905,648161.0,9608
1214.35,1.818849,659999.0,10016
1217.9,1.80994,668609.0,10357
1221.45,1.81886,677405.0,10280
1224.99,1.78124,686281.0,11357
1228.53,1.78887,695317.0,11306
1232.07,1.77691,704063.0,11768
1235.6,1.76705,713007.0,12191
1239.13,1.75987,721330.0,12539
1242.65,1.76515,730030.0,12537
1246.17,1.77303,737591.0,12439
1250.85,1.76181,746809.0,12924
1254.36,1.75704,753336.0,13181
1257.86,1.7558,759907.0,13334
1261.36,1.747623,766538.0,13706
1264.86,1.75639,774802.0,13577
1268.35,1.75584,784025.0,13756
1271.83,1.75746,794336.0,13885
1275.32,1.74435,804198.0,14488
1278.79,1.7535,813836.0,14356
1282.27,1.7434,823595.0,14870
1286.89,1.74143,834533.0,15136
1290.36,1.75523,842581.0,14804
1293.81,1.745621,849301.0,15256
1297.27,1.7487,856026.0,15268
1300.72,1.74728,862498.0,15434
1304.17,1.74901,868068.0,15472
1307.61,1.74463,872869.0,15715
1311.05,1.74971,877616.0,15617
1314.48,1.757913,881872.0,15399
1317.91,1.73989,885520.0,16118
1322.47,1.746264,888917.0,15944
1325.89,1.74688,891687.0,15971
1329.31,1.7293,894001.0,16674
1332.72,1.75001,895438.0,15923
1336.12,1.75572,896641.0,15736
1339.52,1.75822,897974.0,15669
1342.92,1.747474,898777.0,16076
1346.31,1.74675,898783.0,16103
1349.7,1.76052,898350.0,15593
1353.09,1.77668,896784.0,14997
1357.59,1.76847,895293.0,15258
1360.97,1.78044,892755.0,14801
1364.34,1.78433,890430.0,14631
1367.7,1.80661,888504.0,13869
1371.06,1.794021,885825.0,14234
1374.42,1.80042,881046.0,13950
1377.77,1.79092,874030.0,14145
1381.12,1.79591,865751.0,13851
1384.47,1.811104,857799.0,13252
1387.81,1.81801,851759.0,12951
1392.25,1.82808,846500.0,12576
1395.58,1.82945,843622.0,12494
1398.91,1.83342,841228.0,12345
1402.23,1.80371,838489.0,13176
1405.55,1.80813,836065.0,13005
1408.86,1.81406,834396.0,12803
1412.17,1.80675,832187.0,12986
1415.47,1.808048,830123.0,12915
1418.77,1.81672,828244.0,12631
1422.07,1.81012,827314.0,12810
1426.45,1.80296,826435.0,13009
1429.74,1.80554,825475.0,12917
1433.02,1.78183,824938.0,13633
1436.29,1.78741,823959.0,13443
1439.57,1.79185,823822.0,13304
1442.83,1.79348,823184.0,13244
1446.1,1.79158,821953.0,13282
1449.36,1.789096,821135.0,13345
1452.61,1.77089,819413.0,13887
1455.86,1.77478,817492.0,13731
1459.11,1.77943,814862.0,13541
1463.43,1.78495,811075.0,13308
1466.67,1.78127,807671.0,13365
1469.9,1.77248,803699.0,13571
1473.13,1.77012,799396.0,13572
1476.35,1.7797,795129.0,13205
1479.57,1.76904,790127.0,13448
1482.78,1.77164,784937.0,13280
1486,1.77278,779544.0,13154
1489.2,1.76894,773733.0,13172
1492.4,1.76547,767463.0,13170
1496.67,1.75984,758614.0,13188
1499.86,1.76243,751802.0,12992
1503.04,1.7514,744297.0,13193
1506.23,1.75026,735980.0,13080
1509.41,1.74498,728040.0,13097
1512.58,1.76422,719703.0,12386
1515.75,1.760051,710982.0,12354
1518.92,1.74519,702409.0,12630
1522.08,1.74462,693280.0,12482
1525.24,1.7362,683935.0,12555
1529.44,1.744866,671492.0,12083
1532.59,1.74492,661352.0,11899
1535.73,1.73943,650841.0,11859
1538.87,1.74352,640156.0,11555
1542,1.72393,629036.0,11878
1545.13,1.73145,617445.0,11459
1548.26,1.73568,605527.0,11129
1551.38,1.721,594133.0,11295
1554.49,1.73337,582894.0,10770
1557.61,1.71802,571271.0,10935
1561.75,1.70285,555940.0,11020
1564.85,1.72944,544812.0,10158
1567.95,1.72235,533402.0,10109
1571.05,1.71083,521915.0,10157
1574.14,1.7112,510788.0,9932
1577.22,1.7098,499607.0,9746
1580.3,1.71441,487992.0,9419
1583.38,1.7238,476265.0,8996
1586.45,1.71878,464618.0,8878
1589.52,1.70846,452782.0,8860
1593.6,1.72646,436897.0,8202
1596.66,1.71477,425551.0,8207
1599.71,1.72383,414191.0,7823
1602.76,1.68842,402799.0,8254
1605.81,1.6956,391352.0,7888
1608.85,1.69343,380811.0,7714
1611.89,1.71332,370076.0,7161
1614.92,1.6962,359798.0,7242
1617.95,1.69275,349165.0,7084
1620.97,1.70363,338717.0,6702
1624.99,1.72084,325435.0,6189
1628.01,1.74277,315463.0,5704
1631.02,1.72764,305570.0,5721
1634.02,1.72806,295762.0,5532
1637.02,1.69483,286306.0,5781
1640.02,1.686128,276696.0,5700
1643.01,1.70512,267004.0,5265
1646,1.70454,257531.0,5085
1648.98,1.71407,247817.0,4787
1651.96,1.70705,238547.0,4683
1655.93,1.67989,225092.0,4704
1658.89,1.690496,214425.0,4373
1661.86,1.64453,202241.0,4585
1664.82,1.67965,188046.0,3932
1667.78,1.66576,171566.0,3704
1670.73,1.71843,154101.0,2947
1673.67,1.66729,134892.0,2902
1676.62,1.6892,115325.0,2359
1679.56,1.6296,97255.0,2282
1682.49,1.552359,81017.0,2271
1686.4,1.5746,63571.0,1693
1689.32,1.685134,53566.0,1106
1692.24,1.6904,45493.0,928
1695.16,1.551687,39217.0,1101
1698.07,1.6165,33537.0,811
1700.97,1.766061,29118.0,499