File: Data/PP/PP19_Column 1_20211230_113231.csv
***Scan Config Information***,,,,,,,***Reference Scan Information***,,,,,,,,
Scan Config Name:,Column 1,,,,,,Scan Config Name:,Built-in Factory Reference,,,,,,
Scan Config Type:,Slew,Num Section:,1,,,,Scan Config Type:,Slew,Num Section:,1,,,,,
Section Config Type:,Column,,,,,,Section Config Type:,Column,,,,,,,
Start Wavelength (nm):,900,,,,,,Start Wavelength (nm):,900.0,,,,,,
End Wavelength (nm):,1700,,,,,,End Wavelength (nm):,1700.0,,,,,,
Pattern Width (nm):,7.03,,,,,,Pattern Width (nm):,7.03,,,,,,,
Exposure (ms):,0.635,,,,,,Exposure (ms):,0.635,,,,,,,
Digital Resolution:,228,,,,,,Digital Resolution:,228,,,,,,,
Num Repeats:,6,,,,,,Num Repeats:,30,,,,,,,
PGA Gain:,64,,,,,,PGA Gain:,64,,,,,,
System Temp (C):,28.13,,,,,,System Temp (C):,24.17,,,,,,,
Humidity (%):,38.09,,,,,,Humidity (%):,30.0,,,,,,
Battery Capacity (%):,56,,,,,,Lamp Intensity:,2449,,,,,,,
Lamp Intensity:,2576,,,,,,Data Date-Time:,19/12/12T12:44:54,,,,,,
Data Date-Time:,18/1/1T7:11:49,,,,,,,,,,,,,,
Total Measurement Time in sec:,4.984,,,,,,,,,,,,,
***General Information***,,,,,,,***Calibration Coefficients***,,,,,,,,
Model Name:,NIR-S-G1,,,,,,Shift Vector Coefficients:,-8.44101,0.0554567,-8.45244e-05,,,,,
Serial Number:,947R055,95UB122GC0A947R055,,,,,Pixel to Wavelength Coefficients:,1795.87,-0.92014,-0.00023961,,,,,
APP Version:,2.16.7,,,,,,,,,,,,,
TIVA Version:,2.4.4,,,,,,***Lamp Usage * **,,,,,,,,
UUID:,de:67:c:88:67:2c:2d:21,,,,,,Total Time(HH:MM:SS):,13min 32sec ,,,,,,,
Main Board Version:,D,,,,,,***Device/Error Status***,,,,,,,,
Detector Board Version:,B,,,,,,Device Status:,0x00000031,,,,,,
,,,,,,,Error status:,0x00000000,Error Code:,0x00000000000000000000000000000000,,,,,
,,,,,,,,,Error Details:,Not Found,,,,,
***Scan Data***,,,,,,,,,,,,,,,
Wavelength (nm),Absorbance (AU),Reference Signal (unitless),Sample Signal (unitless)
901.841,1.73575,99968.0,1837
905.754,1.69065,108993.0,2222
909.663,1.65542,118185.0,2613
913.568,1.70894,129285.0,2527
917.469,1.66182,143347.0,3123
921.365,1.696102,160437.0,3230
925.257,1.69356,180387.0,3653
929.144,1.64325,201426.0,4580
933.028,1.69145,220694.0,4491
936.906,1.61044,237501.0,5824
942.072,1.64748,256956.0,5786
945.94,1.64549,270636.0,6122
949.805,1.6409,283621.0,6484
953.665,1.61848,296982.0,7149
957.521,1.63942,310733.0,7128
961.373,1.64169,324587.0,7407
965.22,1.62198,339205.0,8100
969.063,1.636003,353669.0,8177
972.902,1.6322,368253.0,8589
976.736,1.639271,382531.0,8778
981.842,1.63398,399901.0,9289
985.666,1.60798,411528.0,10149
989.486,1.61382,422199.0,10273
993.302,1.6162,431172.0,10434
997.113,1.63055,438051.0,10256
1000.92,1.61878,444216.0,10686
1004.72,1.62884,449307.0,10561
1008.52,1.60769,453601.0,11194
1012.32,1.63495,456801.0,10587
1016.11,1.62194,459312.0,10969
1021.15,1.6335,461643.0,10735
1024.93,1.62635,463069.0,10947
1028.71,1.60907,463868.0,11411
1032.48,1.62056,464326.0,11124
1036.24,1.61496,466001.0,11309
1040.01,1.61662,466870.0,11287
1043.77,1.62579,467033.0,11055
1047.52,1.61655,467045.0,11293
1051.27,1.61353,467467.0,11382
1055.01,1.63049,467627.0,10950
1060,1.6265,468351.0,11068
1063.74,1.64086,469050.0,10724
1067.47,1.6302,469880.0,11010
1071.19,1.62425,471228.0,11194
1074.92,1.62882,472558.0,11108
1078.63,1.62217,474087.0,11316
1082.35,1.62134,476569.0,11397
1086.06,1.6316,479445.0,11198
1089.76,1.63653,481756.0,11125
1093.46,1.63187,485147.0,11324
1098.39,1.6238,489755.0,11646
1102.08,1.61331,493535.0,12023
1105.77,1.62658,497426.0,11753
1109.45,1.62529,501308.0,11880
1113.13,1.63163,505725.0,11811
1116.8,1.62855,509421.0,11982
1120.47,1.62036,513217.0,12301
1124.13,1.642703,517470.0,11781
1127.79,1.63801,521690.0,12006
1131.45,1.63721,526099.0,12130
1136.32,1.62634,531329.0,12561
1139.96,1.64287,535549.0,12188
1143.61,1.644,539808.0,12253
1147.24,1.65547,543900.0,12024
1150.88,1.65399,547908.0,12154
1154.5,1.66474,552170.0,11949
1158.13,1.67864,556773.0,11669
1161.75,1.66986,561098.0,12000
1165.36,1.659,565898.0,12409
1168.98,1.68011,571300.0,11933
1172.58,1.6721,576602.0,12268
1177.39,1.710127,584320.0,11390
1180.98,1.714685,589396.0,11369
1184.58,1.71575,596143.0,11471
1188.16,1.73387,602955.0,11128
1191.75,1.73316,609704.0,11271
1195.33,1.73871,617215.0,11265
1198.9,1.73693,624471.0,11444
1202.48,1.72466,632472.0,11923
1206.04,1.73529,640381.0,11780
1209.61,1.72579,648161.0,12187
1214.35,1.73119,659999.0,12256
1217.9,1.71344,668609.0,12934
1221.45,1.70683,677405.0,13305
1224.99,1.69722,686281.0,13781
1228.53,1.69547,695317.0,14019
1232.07,1.686903,704063.0,14478
1235.6,1.6649,713007.0,15424
1239.13,1.66451,721330.0,15618
1242.65,1.65495,730030.0,16158
1246.17,1.65456,737591.0,16340
1250.85,1.65908,746809.0,16373
1254.36,1.65101,753336.0,16826
1257.86,1.651642,759907.0,16948
1261.36,1.65029,766538.0,17149
1264.86,1.63914,774802.0,17785
1268.35,1.6415,784025.0,17899
1271.83,1.63481,794336.0,18416
1275.32,1.64455,804198.0,18231
1278.79,1.63092,813836.0,19038
1282.27,1.63131,823595.0,19249
1286.89,1.62974,834533.0,19575
1290.36,1.64285,842581.0,19176
1293.81,1.63825,849301.0,19535
1297.27,1.6417,856026.0,19534
1300.72,1.64517,862498.0,19525
1304.17,1.634559,868068.0,20137
1307.61,1.63959,872869.0,20015
1311.05,1.63242,877616.0,20459
1314.48,1.63832,881872.0,20281
1317.91,1.6357,885520.0,20488
1322.47,1.63354,888917.0,20669
1325.89,1.64628,891687.0,20134
1329.31,1.64603,894001.0,20198
1332.72,1.636464,895438.0,20681
1336.12,1.63623,896641.0,20720
1339.52,1.63581,897974.0,20771
1342.92,1.637346,898777.0,20716
1346.31,1.64513,898783.0,20348
1349.7,1.649796,898350.0,20121
1353.09,1.65442,896784.0,19873
1357.59,1.66242,895293.0,19478
1360.97,1.67806,892755.0,18736
1364.34,1.68233,890430.0,18504
1367.7,1.703517,888504.0,17585
1371.06,1.68267,885825.0,18394
1374.42,1.70437,881046.0,17403
1377.77,1.70665,874030.0,17174
1381.12,1.70569,865751.0,17049
1384.47,1.72192,857799.0,16273
1387.81,1.71339,851759.0,16479
1392.25,1.73247,846500.0,15673
1395.58,1.73086,843622.0,15678
1398.91,1.73251,841228.0,15574
1402.23,1.73034,838489.0,15601
1405.55,1.72227,836065.0,15848
1408.86,1.72572,834396.0,15691
1412.17,1.716291,832187.0,15993
1415.47,1.713424,830123.0,16059
1418.77,1.70747,828244.0,16244
1422.07,1.69678,827314.0,16630
1426.45,1.69907,826435.0,16525
1429.74,1.69349,825475.0,16719
1433.02,1.69981,824938.0,16467
1436.29,1.69606,823959.0,16590
1439.57,1.69635,823822.0,16576
1442.83,1.69377,823184.0,16662
1446.1,1.69855,821953.0,16455
1449.36,1.68712,821135.0,16877
1452.61,1.67952,819413.0,17139
1455.86,1.68956,817492.0,16708
1459.11,1.67905,814862.0,17062
1463.43,1.68107,811075.0,16904
1466.67,1.68486,807671.0,16687
1469.9,1.6816,803699.0,16730
1473.13,1.66814,799396.0,17164
1476.35,1.67211,795129.0,16917
1479.57,1.66091,790127.0,17250
1482.78,1.66968,784937.0,16794
1486,1.67745,779544.0,16383
1489.2,1.67592,773733.0,16318
1492.4,1.66668,767463.0,16534
1496.67,1.66206,758614.0,16518
1499.86,1.67283,751802.0,15969
1503.04,1.660786,744297.0,16254
1506.23,1.64854,735980.0,16532
1509.41,1.65557,728040.0,16091
1512.58,1.65597,719703.0,15892
1515.75,1.6545,710982.0,15753
1518.92,1.65097,702409.0,15690
1522.08,1.64848,693280.0,15575
1525.24,1.65311,683935.0,15202
1529.44,1.64144,671492.0,15332
1532.59,1.64347,661352.0,15030
1535.73,1.64524,650841.0,14731
1538.87,1.64256,640156.0,14579
1542,1.64101,629036.0,14377
1545.13,1.63834,617445.0,14199
1548.26,1.63728,605527.0,13959
1551.38,1.63856,594133.0,13656
1554.49,1.63998,582894.0,13354
1557.61,1.63165,571271.0,13341
1561.75,1.63945,555940.0,12752
1564.85,1.64268,544812.0,12404
1567.95,1.62315,533402.0,12703
1571.05,1.64476,521915.0,11826
1574.14,1.63229,510788.0,11911
1577.22,1.62896,499607.0,11740
1580.3,1.633,487992.0,11361
1583.38,1.6346,476265.0,11047
1586.45,1.624678,464618.0,11026
1589.52,1.63861,452782.0,10406
1593.6,1.62603,436897.0,10336
1596.66,1.64623,425551.0,9610
1599.71,1.63236,414191.0,9657
1602.76,1.63252,402799.0,9388
1605.81,1.63669,391352.0,9034
1608.85,1.626805,380811.0,8993
1611.89,1.63704,370076.0,8536
1614.92,1.63599,359798.0,8319
1617.95,1.64152,349165.0,7971
1620.97,1.63981,338717.0,7763
1624.99,1.644055,325435.0,7386
1628.01,1.64622,315463.0,7124
1631.02,1.64828,305570.0,6868
1634.02,1.66307,295762.0,6425
1637.02,1.65804,286306.0,6292
1640.02,1.64363,276696.0,6286
1643.01,1.620881,267004.0,6392
1646,1.65116,257531.0,5750
1648.98,1.66005,247817.0,5421
1651.96,1.606354,238547.0,5905
1655.93,1.656966,225092.0,4959
1658.89,1.64437,214425.0,4863
1661.86,1.670084,202241.0,4323
1664.82,1.63738,188046.0,4334
1667.78,1.6633,171566.0,3725
1670.73,1.61354,154101.0,3752
1673.67,1.58778,134892.0,3485
1676.62,1.53558,115325.0,3360
1679.56,1.60428,97255.0,2419
1682.49,1.5806,81017.0,2128
1686.4,1.69402,63571.0,1286
1689.32,1.78391,53566.0,881
1692.24,1.92797,45493.0,537
1695.16,1.63971,39217.0,899
1698.07,2.12758,33537.0,250
1700.97,1.909067,29118.0,359