File: Data/PP/PP1_Column 1_20211230_112804.csv
***Scan Config Information***,,,,,,,***Reference Scan Information***,,,,,,,,
Scan Config Name:,Column 1,,,,,,Scan Config Name:,Built-in Factory Reference,,,,,,
Scan Config Type:,Slew,Num Section:,1,,,,Scan Config Type:,Slew,Num Section:,1,,,,,
Section Config Type:,Column,,,,,,Section Config Type:,Column,,,,,,,
Start Wavelength (nm):,900,,,,,,Start Wavelength (nm):,900.0,,,,,,
End Wavelength (nm):,1700,,,,,,End Wavelength (nm):,1700.0,,,,,,
Pattern Width (nm):,7.03,,,,,,Pattern Width (nm):,7.03,,,,,,,
Exposure (ms):,0.635,,,,,,Exposure (ms):,0.635,,,,,,,
Digital Resolution:,228,,,,,,Digital Resolution:,228,,,,,,,
Num Repeats:,6,,,,,,Num Repeats:,30,,,,,,,
PGA Gain:,64,,,,,,PGA Gain:,64,,,,,,
System Temp (C):,25.09,,,,,,System Temp (C):,24.17,,,,,,,
Humidity (%):,39.03,,,,,,Humidity (%):,30.0,,,,,,
Battery Capacity (%):,59,,,,,,Lamp Intensity:,2449,,,,,,,
Lamp Intensity:,2520,,,,,,Data Date-Time:,19/12/12T12:44:54,,,,,,
Data Date-Time:,18/1/1T7:7:24,,,,,,,,,,,,,,
Total Measurement Time in sec:,4.04,,,,,,,,,,,,,
***General Information***,,,,,,,***Calibration Coefficients***,,,,,,,,
Model Name:,NIR-S-G1,,,,,,Shift Vector Coefficients:,-8.44101,0.0554567,-8.45244e-05,,,,,
Serial Number:,947R055,95UB122GC0A947R055,,,,,Pixel to Wavelength Coefficients:,1795.87,-0.92014,-0.00023961,,,,,
APP Version:,2.16.7,,,,,,,,,,,,,
TIVA Version:,2.4.4,,,,,,***Lamp Usage * **,,,,,,,,
UUID:,de:67:c:88:67:2c:2d:21,,,,,,Total Time(HH:MM:SS):,12min 52sec ,,,,,,,
Main Board Version:,D,,,,,,***Device/Error Status***,,,,,,,,
Detector Board Version:,B,,,,,,Device Status:,0x00000031,,,,,,
,,,,,,,Error status:,0x00000000,Error Code:,0x00000000000000000000000000000000,,,,,
,,,,,,,,,Error Details:,Not Found,,,,,
***Scan Data***,,,,,,,,,,,,,,,
Wavelength (nm),Absorbance (AU),Reference Signal (unitless),Sample Signal (unitless)
901.841,1.73979,99968.0,1820
905.754,1.66541,108993.0,2355
909.663,1.68163,118185.0,2460
913.568,1.69093,129285.0,2634
917.469,1.65205,143347.0,3194
921.365,1.687581,160437.0,3294
925.257,1.680671,180387.0,3763
929.144,1.63452,201426.0,4673
933.028,1.67821,220694.0,4630
936.906,1.66083,237501.0,5186
942.072,1.68094,256956.0,5357
945.94,1.678726,270636.0,5671
949.805,1.69763,283621.0,5690
953.665,1.66553,296982.0,6415
957.521,1.68054,310733.0,6484
961.373,1.67381,324587.0,6879
965.22,1.69426,339205.0,6858
969.063,1.67423,353669.0,7488
972.902,1.67416,368253.0,7798
976.736,1.692581,382531.0,7764
981.842,1.67876,399901.0,8379
985.666,1.66389,411528.0,8923
989.486,1.69401,422199.0,8541
993.302,1.70893,431172.0,8428
997.113,1.69547,438051.0,8832
1000.92,1.68504,444216.0,9174
1004.72,1.6925,449307.0,9121
1008.52,1.69559,453601.0,9143
1012.32,1.71249,456801.0,8856
1016.11,1.71822,459312.0,8788
1021.15,1.70236,461643.0,9161
1024.93,1.69303,463069.0,9389
1028.71,1.70016,463868.0,9252
1032.48,1.687958,464326.0,9525
1036.24,1.68884,466001.0,9540
1040.01,1.693902,466870.0,9447
1043.77,1.686805,467033.0,9606
1047.52,1.67995,467045.0,9759
1051.27,1.70234,467467.0,9277
1055.01,1.68722,467627.0,9609
1060,1.714307,468351.0,9042
1063.74,1.69267,469050.0,9518
1067.47,1.69008,469880.0,9592
1071.19,1.6887,471228.0,9650
1074.92,1.68768,472558.0,9700
1078.63,1.6921,474087.0,9633
1082.35,1.70755,476569.0,9345
1086.06,1.69424,479445.0,9694
1089.76,1.70319,481756.0,9542
1093.46,1.69412,485147.0,9812
1098.39,1.696675,489755.0,9847
1102.08,1.718484,493535.0,9437
1105.77,1.697511,497426.0,9982
1109.45,1.71065,501308.0,9760
1113.13,1.71491,505725.0,9750
1116.8,1.71316,509421.0,9861
1120.47,1.704563,513217.0,10133
1124.13,1.706607,517470.0,10169
1127.79,1.70479,521690.0,10295
1131.45,1.69486,526099.0,10622
1136.32,1.71405,531329.0,10264
1139.96,1.72611,535549.0,10062
1143.61,1.74044,539808.0,9813
1147.24,1.73219,543900.0,10077
1150.88,1.76245,547908.0,9468
1154.5,1.750094,552170.0,9817
1158.13,1.75463,556773.0,9796
1161.75,1.75499,561098.0,9864
1165.36,1.76655,565898.0,9687
1168.98,1.76924,571300.0,9719
1172.58,1.782924,576602.0,9505
1177.39,1.805752,584320.0,9139
1180.98,1.817276,589396.0,8977
1184.58,1.78965,596143.0,9676
1188.16,1.81101,602955.0,9317
1191.75,1.83558,609704.0,8903
1195.33,1.84551,617215.0,8809
1198.9,1.82881,624471.0,9262
1202.48,1.81302,632472.0,9728
1206.04,1.82408,640381.0,9602
1209.61,1.841336,648161.0,9340
1214.35,1.80975,659999.0,10228
1217.9,1.81815,668609.0,10163
1221.45,1.80608,677405.0,10587
1224.99,1.79764,686281.0,10936
1228.53,1.79608,695317.0,11120
1232.07,1.78255,704063.0,11616
1235.6,1.77196,713007.0,12054
1239.13,1.75372,721330.0,12718
1242.65,1.76283,730030.0,12604
1246.17,1.75344,737591.0,13013
1250.85,1.74884,746809.0,13316
1254.36,1.75579,753336.0,13219
1257.86,1.749206,759907.0,13538
1261.36,1.73962,766538.0,13961
1264.86,1.74179,774802.0,14041
1268.35,1.74009,784025.0,14264
1271.83,1.73121,794336.0,14750
1275.32,1.73613,804198.0,14765
1278.79,1.72616,813836.0,15289
1282.27,1.73068,823595.0,15312
1286.89,1.73664,834533.0,15304
1290.36,1.7301,842581.0,15686
1293.81,1.73101,849301.0,15778
1297.27,1.73917,856026.0,15607
1300.72,1.73496,862498.0,15878
1304.17,1.73888,868068.0,15837
1307.61,1.73531,872869.0,16056
1311.05,1.72841,877616.0,16402
1314.48,1.73807,881872.0,16119
1317.91,1.74509,885520.0,15926
1322.47,1.73238,888917.0,16462
1325.89,1.73805,891687.0,16299
1329.31,1.73578,894001.0,16427
1332.72,1.73796,895438.0,16371
1336.12,1.73987,896641.0,16321
1339.52,1.74084,897974.0,16309
1342.92,1.73449,898777.0,16564
1346.31,1.73884,898783.0,16399
1349.7,1.75342,898350.0,15850
1353.09,1.75532,896784.0,15753
1357.59,1.76259,895293.0,15466
1360.97,1.78218,892755.0,14742
1364.34,1.77852,890430.0,14828
1367.7,1.79166,888504.0,14355
1371.06,1.78914,885825.0,14395
1374.42,1.80521,881046.0,13797
1377.77,1.796672,874030.0,13959
1381.12,1.81989,865751.0,13107
1384.47,1.81661,857799.0,13085
1387.81,1.82243,851759.0,12820
1392.25,1.83554,846500.0,12362
1395.58,1.83445,843622.0,12351
1398.91,1.84711,841228.0,11962
1402.23,1.822989,838489.0,12604
1405.55,1.81189,836065.0,12893
1408.86,1.82231,834396.0,12562
1412.17,1.80735,832187.0,12968
1415.47,1.81384,830123.0,12744
1418.77,1.80512,828244.0,12973
1422.07,1.80213,827314.0,13048
1426.45,1.8031,826435.0,13005
1429.74,1.80578,825475.0,12910
1433.02,1.80408,824938.0,12952
1436.29,1.82512,823959.0,12325
1439.57,1.81217,823822.0,12696
1442.83,1.79161,823184.0,13301
1446.1,1.79391,821953.0,13211
1449.36,1.78919,821135.0,13342
1452.61,1.78038,819413.0,13587
1455.86,1.78919,817492.0,13283
1459.11,1.78382,814862.0,13405
1463.43,1.79622,811075.0,12967
1466.67,1.77748,807671.0,13482
1469.9,1.77831,803699.0,13390
1473.13,1.77252,799396.0,13497
1476.35,1.76562,795129.0,13640
1479.57,1.771468,790127.0,13373
1482.78,1.77469,784937.0,13187
1486,1.77143,779544.0,13195
1489.2,1.77686,773733.0,12934
1492.4,1.77626,767463.0,12847
1496.67,1.77649,758614.0,12692
1499.86,1.75144,751802.0,13325
1503.04,1.760921,744297.0,12907
1506.23,1.75837,735980.0,12838
1509.41,1.7641,728040.0,12533
1512.58,1.74883,719703.0,12833
1515.75,1.745056,710982.0,12788
1518.92,1.73496,702409.0,12931
1522.08,1.75501,693280.0,12187
1525.24,1.73817,683935.0,12498
1529.44,1.75464,671492.0,11814
1532.59,1.7469,661352.0,11845
1535.73,1.72005,650841.0,12400
1538.87,1.74631,640156.0,11481
1542,1.73583,629036.0,11557
1545.13,1.73005,617445.0,11496
1548.26,1.74831,605527.0,10810
1551.38,1.736776,594133.0,10892
1554.49,1.73633,582894.0,10697
1557.61,1.75265,571271.0,10097
1561.75,1.75425,555940.0,9790
1564.85,1.73869,544812.0,9944
1567.95,1.74406,533402.0,9616
1571.05,1.73123,521915.0,9691
1574.14,1.73803,510788.0,9337
1577.22,1.72721,499607.0,9363
1580.3,1.7278,487992.0,9133
1583.38,1.7253,476265.0,8965
1586.45,1.7203,464618.0,8847
1589.52,1.73275,452782.0,8378
1593.6,1.73431,436897.0,8055
1596.66,1.73764,425551.0,7786
1599.71,1.72172,414191.0,7861
1602.76,1.71506,402799.0,7763
1605.81,1.75815,391352.0,6830
1608.85,1.74067,380811.0,6919
1611.89,1.73393,370076.0,6829
1614.92,1.73909,359798.0,6561
1617.95,1.75155,349165.0,6187
1620.97,1.72372,338717.0,6399
1624.99,1.7152,325435.0,6270
1628.01,1.73261,315463.0,5839
1631.02,1.72071,305570.0,5813
1634.02,1.70879,295762.0,5783
1637.02,1.721072,286306.0,5442
1640.02,1.70529,276696.0,5454
1643.01,1.72668,267004.0,5010
1646,1.76296,257531.0,4445
1648.98,1.73222,247817.0,4591
1651.96,1.72707,238547.0,4472
1655.93,1.74341,225092.0,4064
1658.89,1.76768,214425.0,3661
1661.86,1.6997,202241.0,4038
1664.82,1.717,188046.0,3608
1667.78,1.68764,171566.0,3522
1670.73,1.71257,154101.0,2987
1673.67,1.65171,134892.0,3008
1676.62,1.726867,115325.0,2163
1679.56,1.71654,97255.0,1868
1682.49,1.57092,81017.0,2176
1686.4,1.74105,63571.0,1154
1689.32,1.878243,53566.0,709
1692.24,1.65925,45493.0,997
1695.16,1.78662,39217.0,641
1698.07,1.93335,33537.0,391
1700.97,1.783826,29118.0,479