File: Data/PP/PP20_Column 1_20211230_113247.csv
***Scan Config Information***,,,,,,,***Reference Scan Information***,,,,,,,,
Scan Config Name:,Column 1,,,,,,Scan Config Name:,Built-in Factory Reference,,,,,,
Scan Config Type:,Slew,Num Section:,1,,,,Scan Config Type:,Slew,Num Section:,1,,,,,
Section Config Type:,Column,,,,,,Section Config Type:,Column,,,,,,,
Start Wavelength (nm):,900,,,,,,Start Wavelength (nm):,900.0,,,,,,
End Wavelength (nm):,1700,,,,,,End Wavelength (nm):,1700.0,,,,,,
Pattern Width (nm):,7.03,,,,,,Pattern Width (nm):,7.03,,,,,,,
Exposure (ms):,0.635,,,,,,Exposure (ms):,0.635,,,,,,,
Digital Resolution:,228,,,,,,Digital Resolution:,228,,,,,,,
Num Repeats:,6,,,,,,Num Repeats:,30,,,,,,,
PGA Gain:,64,,,,,,PGA Gain:,64,,,,,,
System Temp (C):,28.29,,,,,,System Temp (C):,24.17,,,,,,,
Humidity (%):,37.9,,,,,,Humidity (%):,30.0,,,,,,
Battery Capacity (%):,56,,,,,,Lamp Intensity:,2449,,,,,,,
Lamp Intensity:,2580,,,,,,Data Date-Time:,19/12/12T12:44:54,,,,,,
Data Date-Time:,18/1/1T7:12:5,,,,,,,,,,,,,,
Total Measurement Time in sec:,4.971,,,,,,,,,,,,,
***General Information***,,,,,,,***Calibration Coefficients***,,,,,,,,
Model Name:,NIR-S-G1,,,,,,Shift Vector Coefficients:,-8.44101,0.0554567,-8.45244e-05,,,,,
Serial Number:,947R055,95UB122GC0A947R055,,,,,Pixel to Wavelength Coefficients:,1795.87,-0.92014,-0.00023961,,,,,
APP Version:,2.16.7,,,,,,,,,,,,,
TIVA Version:,2.4.4,,,,,,***Lamp Usage * **,,,,,,,,
UUID:,de:67:c:88:67:2c:2d:21,,,,,,Total Time(HH:MM:SS):,13min 34sec ,,,,,,,
Main Board Version:,D,,,,,,***Device/Error Status***,,,,,,,,
Detector Board Version:,B,,,,,,Device Status:,0x00000031,,,,,,
,,,,,,,Error status:,0x00000000,Error Code:,0x00000000000000000000000000000000,,,,,
,,,,,,,,,Error Details:,Not Found,,,,,
***Scan Data***,,,,,,,,,,,,,,,
Wavelength (nm),Absorbance (AU),Reference Signal (unitless),Sample Signal (unitless)
901.841,1.62074,99968.0,2394
905.754,1.55424,108993.0,3042
909.663,1.63102,118185.0,2764
913.568,1.56612,129285.0,3511
917.469,1.55891,143347.0,3958
921.365,1.58757,160437.0,4147
925.257,1.61533,180387.0,4374
929.144,1.62315,201426.0,4797
933.028,1.60755,220694.0,5448
936.906,1.59788,237501.0,5995
942.072,1.57177,256956.0,6888
945.94,1.572827,270636.0,7237
949.805,1.55259,283621.0,7946
953.665,1.55908,296982.0,8197
957.521,1.58541,310733.0,8072
961.373,1.56724,324587.0,8792
965.22,1.56994,339205.0,9131
969.063,1.56304,353669.0,9673
972.902,1.55458,368253.0,10270
976.736,1.56168,382531.0,10495
981.842,1.56457,399901.0,10899
985.666,1.55393,411528.0,11494
989.486,1.56622,422199.0,11463
993.302,1.5645,431172.0,11753
997.113,1.57688,438051.0,11605
1000.92,1.5678,444216.0,12017
1004.72,1.57231,449307.0,12029
1008.52,1.55462,453601.0,12649
1012.32,1.57294,456801.0,12212
1016.11,1.56956,459312.0,12375
1021.15,1.5573,461643.0,12794
1024.93,1.5513,463069.0,13012
1028.71,1.56485,463868.0,12634
1032.48,1.58053,464326.0,12198
1036.24,1.58267,466001.0,12182
1040.01,1.56406,466870.0,12739
1043.77,1.54996,467033.0,13164
1047.52,1.56597,467045.0,12688
1051.27,1.57347,467467.0,12482
1055.01,1.56531,467627.0,12723
1060,1.56762,468351.0,12675
1063.74,1.58411,469050.0,12221
1067.47,1.57213,469880.0,12585
1071.19,1.57207,471228.0,12623
1074.92,1.56976,472558.0,12726
1078.63,1.56844,474087.0,12806
1082.35,1.57296,476569.0,12740
1086.06,1.57028,479445.0,12896
1089.76,1.57318,481756.0,12872
1093.46,1.57515,485147.0,12904
1098.39,1.56226,489755.0,13419
1102.08,1.56437,493535.0,13457
1105.77,1.56927,497426.0,13411
1109.45,1.56462,501308.0,13661
1113.13,1.57095,505725.0,13582
1116.8,1.57383,509421.0,13591
1120.47,1.576124,513217.0,13620
1124.13,1.57647,517470.0,13722
1127.79,1.56256,521690.0,14284
1131.45,1.57709,526099.0,13931
1136.32,1.58681,531329.0,13758
1139.96,1.5892,535549.0,13791
1143.61,1.589162,539808.0,13902
1147.24,1.59017,543900.0,13975
1150.88,1.609598,547908.0,13462
1154.5,1.60494,552170.0,13713
1158.13,1.61208,556773.0,13602
1161.75,1.61429,561098.0,13638
1165.36,1.60985,565898.0,13896
1168.98,1.6308,571300.0,13368
1172.58,1.62147,576602.0,13785
1177.39,1.62816,584320.0,13756
1180.98,1.67135,589396.0,12562
1184.58,1.65091,596143.0,13318
1188.16,1.67549,602955.0,12729
1191.75,1.68149,609704.0,12695
1195.33,1.67569,617215.0,13024
1198.9,1.66689,624471.0,13447
1202.48,1.67019,632472.0,13516
1206.04,1.67191,640381.0,13631
1209.61,1.66305,648161.0,14081
1214.35,1.66415,659999.0,14302
1217.9,1.65036,668609.0,14956
1221.45,1.65331,677405.0,15050
1224.99,1.652407,686281.0,15279
1228.53,1.6335,695317.0,16169
1232.07,1.62529,704063.0,16685
1235.6,1.62349,713007.0,16967
1239.13,1.61547,721330.0,17485
1242.65,1.6205,730030.0,17492
1246.17,1.60774,737591.0,18200
1250.85,1.59295,746809.0,19066
1254.36,1.601401,753336.0,18862
1257.86,1.60073,759907.0,19056
1261.36,1.603796,766538.0,19087
1264.86,1.59994,774802.0,19465
1268.35,1.59709,784025.0,19826
1271.83,1.60806,794336.0,19586
1275.32,1.59763,804198.0,20311
1278.79,1.59555,813836.0,20653
1282.27,1.59059,823595.0,21141
1286.89,1.58685,834533.0,21607
1290.36,1.59368,842581.0,21475
1293.81,1.58899,849301.0,21881
1297.27,1.59597,856026.0,21703
1300.72,1.59207,862498.0,22064
1304.17,1.59007,868068.0,22309
1307.61,1.59697,872869.0,22079
1311.05,1.59681,877616.0,22207
1314.48,1.59024,881872.0,22655
1317.91,1.59571,885520.0,22464
1322.47,1.58753,888917.0,22979
1325.89,1.593002,891687.0,22762
1329.31,1.58952,894001.0,23005
1332.72,1.59655,895438.0,22672
1336.12,1.597934,896641.0,22630
1339.52,1.596779,897974.0,22724
1342.92,1.60269,898777.0,22437
1346.31,1.60397,898783.0,22371
1349.7,1.60005,898350.0,22563
1353.09,1.60673,896784.0,22180
1357.59,1.613688,895293.0,21791
1360.97,1.61817,892755.0,21506
1364.34,1.63607,890430.0,20584
1367.7,1.63557,888504.0,20563
1371.06,1.6432,885825.0,20144
1374.42,1.65646,881046.0,19433
1377.77,1.66716,874030.0,18809
1381.12,1.66363,865751.0,18783
1384.47,1.66217,857799.0,18673
1387.81,1.67686,851759.0,17925
1392.25,1.67755,846500.0,17786
1395.58,1.69585,843622.0,16994
1398.91,1.68287,841228.0,17460
1402.23,1.67437,838489.0,17747
1405.55,1.66839,836065.0,17941
1408.86,1.67418,834396.0,17668
1412.17,1.67444,832187.0,17611
1415.47,1.66291,830123.0,18040
1418.77,1.66351,828244.0,17974
1422.07,1.66884,827314.0,17735
1426.45,1.6629,826435.0,17960
1429.74,1.65826,825475.0,18132
1433.02,1.65566,824938.0,18229
1436.29,1.64537,823959.0,18644
1439.57,1.65073,823822.0,18412
1442.83,1.65777,823184.0,18102
1446.1,1.65497,821953.0,18192
1449.36,1.64353,821135.0,18659
1452.61,1.64178,819413.0,18695
1455.86,1.63632,817492.0,18887
1459.11,1.63375,814862.0,18938
1463.43,1.633128,811075.0,18877
1466.67,1.628801,807671.0,18986
1469.9,1.64212,803699.0,18322
1473.13,1.62921,799396.0,18774
1476.35,1.63099,795129.0,18597
1479.57,1.629353,790127.0,18550
1482.78,1.61863,784937.0,18889
1486,1.62469,779544.0,18499
1489.2,1.625879,773733.0,18311
1492.4,1.6325,767463.0,17888
1496.67,1.62143,758614.0,18138
1499.86,1.62226,751802.0,17941
1503.04,1.60934,744297.0,18298
1506.23,1.61747,735980.0,17758
1509.41,1.61971,728040.0,17476
1512.58,1.6214,719703.0,17209
1515.75,1.61079,710982.0,17421
1518.92,1.60569,702409.0,17414
1522.08,1.60281,693280.0,17302
1525.24,1.6059,683935.0,16948
1529.44,1.60767,671492.0,16572
1532.59,1.604848,661352.0,16428
1535.73,1.598287,650841.0,16413
1538.87,1.59747,640156.0,16174
1542,1.58884,629036.0,16212
1545.13,1.60072,617445.0,15484
1548.26,1.59631,605527.0,15340
1551.38,1.58721,594133.0,15370
1554.49,1.59565,582894.0,14789
1557.61,1.5977,571271.0,14426
1561.75,1.60045,555940.0,13950
1564.85,1.58863,544812.0,14048
1567.95,1.60005,533402.0,13397
1571.05,1.59519,521915.0,13256
1574.14,1.59523,510788.0,12972
1577.22,1.59888,499607.0,12582
1580.3,1.58967,487992.0,12553
1583.38,1.595171,476265.0,12097
1586.45,1.59636,464618.0,11769
1589.52,1.59263,452782.0,11568
1593.6,1.59517,436897.0,11097
1596.66,1.59953,425551.0,10701
1599.71,1.60428,414191.0,10302
1602.76,1.59922,402799.0,10136
1605.81,1.59781,391352.0,9880
1608.85,1.60153,380811.0,9532
1611.89,1.60018,370076.0,9292
1614.92,1.592271,359798.0,9200
1617.95,1.56935,349165.0,9412
1620.97,1.600827,338717.0,8492
1624.99,1.61259,325435.0,7941
1628.01,1.60061,315463.0,7913
1631.02,1.60872,305570.0,7523
1634.02,1.61585,295762.0,7163
1637.02,1.61391,286306.0,6965
1640.02,1.58885,276696.0,7131
1643.01,1.60823,267004.0,6581
1646,1.62061,257531.0,6169
1648.98,1.61461,247817.0,6019
1651.96,1.63666,238547.0,5507
1655.93,1.61152,225092.0,5506
1658.89,1.57244,214425.0,5739
1661.86,1.61435,202241.0,4915
1664.82,1.60189,188046.0,4703
1667.78,1.59475,171566.0,4362
1670.73,1.56934,154101.0,4154
1673.67,1.58098,134892.0,3540
1676.62,1.54433,115325.0,3293
1679.56,1.60553,97255.0,2412
1682.49,1.54365,81017.0,2317
1686.4,1.56346,63571.0,1737
1689.32,1.66443,53566.0,1160
1692.24,1.667162,45493.0,979
1695.16,2.12365,39217.0,295
1698.07,1.67122,33537.0,715
1700.97,1.87757,29118.0,386