File: Data/PP/PP21_Column 1_20211230_113300.csv
***Scan Config Information***,,,,,,,***Reference Scan Information***,,,,,,,,
Scan Config Name:,Column 1,,,,,,Scan Config Name:,Built-in Factory Reference,,,,,,
Scan Config Type:,Slew,Num Section:,1,,,,Scan Config Type:,Slew,Num Section:,1,,,,,
Section Config Type:,Column,,,,,,Section Config Type:,Column,,,,,,,
Start Wavelength (nm):,900,,,,,,Start Wavelength (nm):,900.0,,,,,,
End Wavelength (nm):,1700,,,,,,End Wavelength (nm):,1700.0,,,,,,
Pattern Width (nm):,7.03,,,,,,Pattern Width (nm):,7.03,,,,,,,
Exposure (ms):,0.635,,,,,,Exposure (ms):,0.635,,,,,,,
Digital Resolution:,228,,,,,,Digital Resolution:,228,,,,,,,
Num Repeats:,6,,,,,,Num Repeats:,30,,,,,,,
PGA Gain:,64,,,,,,PGA Gain:,64,,,,,,
System Temp (C):,28.43,,,,,,System Temp (C):,24.17,,,,,,,
Humidity (%):,37.78,,,,,,Humidity (%):,30.0,,,,,,
Battery Capacity (%):,55,,,,,,Lamp Intensity:,2449,,,,,,,
Lamp Intensity:,2582,,,,,,Data Date-Time:,19/12/12T12:44:54,,,,,,
Data Date-Time:,18/1/1T7:12:19,,,,,,,,,,,,,,
Total Measurement Time in sec:,4.2,,,,,,,,,,,,,
***General Information***,,,,,,,***Calibration Coefficients***,,,,,,,,
Model Name:,NIR-S-G1,,,,,,Shift Vector Coefficients:,-8.44101,0.0554567,-8.45244e-05,,,,,
Serial Number:,947R055,95UB122GC0A947R055,,,,,Pixel to Wavelength Coefficients:,1795.87,-0.92014,-0.00023961,,,,,
APP Version:,2.16.7,,,,,,,,,,,,,
TIVA Version:,2.4.4,,,,,,***Lamp Usage * **,,,,,,,,
UUID:,de:67:c:88:67:2c:2d:21,,,,,,Total Time(HH:MM:SS):,13min 36sec ,,,,,,,
Main Board Version:,D,,,,,,***Device/Error Status***,,,,,,,,
Detector Board Version:,B,,,,,,Device Status:,0x00000031,,,,,,
,,,,,,,Error status:,0x00000000,Error Code:,0x00000000000000000000000000000000,,,,,
,,,,,,,,,Error Details:,Not Found,,,,,
***Scan Data***,,,,,,,,,,,,,,,
Wavelength (nm),Absorbance (AU),Reference Signal (unitless),Sample Signal (unitless)
901.841,1.55131,99968.0,2809
905.754,1.53429,108993.0,3185
909.663,1.53286,118185.0,3465
913.568,1.53406,129285.0,3780
917.469,1.59588,143347.0,3635
921.365,1.57063,160437.0,4312
925.257,1.56832,180387.0,4874
929.144,1.54384,201426.0,5758
933.028,1.5634,220694.0,6031
936.906,1.57743,237501.0,6284
942.072,1.54553,256956.0,7317
945.94,1.54561,270636.0,7705
949.805,1.53813,283621.0,8215
953.665,1.535714,296982.0,8650
957.521,1.55779,310733.0,8602
961.373,1.54863,324587.0,9177
965.22,1.54396,339205.0,9694
969.063,1.56443,353669.0,9642
972.902,1.55712,368253.0,10210
976.736,1.551986,382531.0,10732
981.842,1.55667,399901.0,11099
985.666,1.56221,411528.0,11277
989.486,1.55338,422199.0,11807
993.302,1.55746,431172.0,11945
997.113,1.55799,438051.0,12121
1000.92,1.55921,444216.0,12257
1004.72,1.536966,449307.0,13049
1008.52,1.54852,453601.0,12828
1012.32,1.56181,456801.0,12529
1016.11,1.55111,459312.0,12912
1021.15,1.55388,461643.0,12895
1024.93,1.55698,463069.0,12843
1028.71,1.5558,463868.0,12900
1032.48,1.55462,464326.0,12948
1036.24,1.55511,466001.0,12980
1040.01,1.55968,466870.0,12868
1043.77,1.56187,467033.0,12808
1047.52,1.57134,467045.0,12532
1051.27,1.55152,467467.0,13129
1055.01,1.55823,467627.0,12932
1060,1.57498,468351.0,12462
1063.74,1.56516,469050.0,12766
1067.47,1.57334,469880.0,12550
1071.19,1.5696,471228.0,12695
1074.92,1.56498,472558.0,12867
1078.63,1.579922,474087.0,12472
1082.35,1.56529,476569.0,12967
1086.06,1.57564,479445.0,12738
1089.76,1.57325,481756.0,12870
1093.46,1.55838,485147.0,13412
1098.39,1.56407,489755.0,13363
1102.08,1.57225,493535.0,13215
1105.77,1.55353,497426.0,13906
1109.45,1.57154,501308.0,13445
1113.13,1.57133,505725.0,13570
1116.8,1.57029,509421.0,13702
1120.47,1.57651,513217.0,13608
1124.13,1.57021,517470.0,13921
1127.79,1.56927,521690.0,14065
1131.45,1.5682,526099.0,14219
1136.32,1.5831,531329.0,13876
1139.96,1.58273,535549.0,13998
1143.61,1.59669,539808.0,13663
1147.24,1.593,543900.0,13884
1150.88,1.60367,547908.0,13647
1154.5,1.60475,552170.0,13719
1158.13,1.60947,556773.0,13684
1161.75,1.61646,561098.0,13570
1165.36,1.625763,565898.0,13396
1168.98,1.6264,571300.0,13504
1172.58,1.62734,576602.0,13600
1177.39,1.65054,584320.0,13065
1180.98,1.6531,589396.0,13101
1184.58,1.66943,596143.0,12762
1188.16,1.68637,602955.0,12414
1191.75,1.67774,609704.0,12805
1195.33,1.69611,617215.0,12426
1198.9,1.68341,624471.0,12945
1202.48,1.684168,632472.0,13088
1206.04,1.69133,640381.0,13035
1209.61,1.6876,648161.0,13307
1214.35,1.68055,659999.0,13772
1217.9,1.67979,668609.0,13976
1221.45,1.6788,677405.0,14192
1224.99,1.655,686281.0,15188
1228.53,1.6504,695317.0,15552
1232.07,1.63853,704063.0,16184
1235.6,1.62421,713007.0,16939
1239.13,1.63321,721330.0,16785
1242.65,1.61255,730030.0,17815
1246.17,1.61228,737591.0,18011
1250.85,1.60244,746809.0,18654
1254.36,1.61373,753336.0,18334
1257.86,1.60386,759907.0,18919
1261.36,1.61186,766538.0,18736
1264.86,1.5936,774802.0,19751
1268.35,1.60159,784025.0,19622
1271.83,1.60354,794336.0,19791
1275.32,1.59917,804198.0,20239
1278.79,1.59072,813836.0,20884
1282.27,1.59205,823595.0,21070
1286.89,1.59974,834533.0,20975
1290.36,1.59273,842581.0,21522
1293.81,1.60019,849301.0,21324
1297.27,1.59264,856026.0,21870
1300.72,1.59176,862498.0,22080
1304.17,1.59056,868068.0,22284
1307.61,1.591186,872869.0,22375
1311.05,1.58728,877616.0,22700
1314.48,1.59671,881872.0,22320
1317.91,1.58873,885520.0,22828
1322.47,1.58785,888917.0,22962
1325.89,1.60099,891687.0,22347
1329.31,1.59669,894001.0,22628
1332.72,1.59175,895438.0,22924
1336.12,1.59221,896641.0,22930
1339.52,1.59592,897974.0,22769
1342.92,1.60269,898777.0,22437
1346.31,1.59388,898783.0,22897
1349.7,1.603,898350.0,22410
1353.09,1.60782,896784.0,22124
1357.59,1.61559,895293.0,21696
1360.97,1.63113,892755.0,20874
1364.34,1.63287,890430.0,20736
1367.7,1.6408,888504.0,20317
1371.06,1.64443,885825.0,20087
1374.42,1.65854,881046.0,19340
1377.77,1.66152,874030.0,19055
1381.12,1.6806,865751.0,18063
1384.47,1.67324,857799.0,18203
1387.81,1.684163,851759.0,17626
1392.25,1.695368,846500.0,17071
1395.58,1.68931,843622.0,17252
1398.91,1.70311,841228.0,16665
1402.23,1.69484,838489.0,16930
1405.55,1.68114,836065.0,17422
1408.86,1.67915,834396.0,17467
1412.17,1.68067,832187.0,17360
1415.47,1.68306,830123.0,17222
1418.77,1.67388,828244.0,17550
1422.07,1.67409,827314.0,17522
1426.45,1.66808,826435.0,17747
1429.74,1.656394,825475.0,18210
1433.02,1.66156,824938.0,17983
1436.29,1.666854,823959.0,17744
1439.57,1.65729,823822.0,18136
1442.83,1.65967,823184.0,18023
1446.1,1.650998,821953.0,18359
1449.36,1.63864,821135.0,18870
1452.61,1.65157,819413.0,18278
1455.86,1.64456,817492.0,18532
1459.11,1.64283,814862.0,18546
1463.43,1.63271,811075.0,18895
1466.67,1.63793,807671.0,18591
1469.9,1.63931,803699.0,18441
1473.13,1.6319,799396.0,18658
1476.35,1.63207,795129.0,18551
1479.57,1.63451,790127.0,18331
1482.78,1.63615,784937.0,18142
1486,1.636544,779544.0,18001
1489.2,1.62366,773733.0,18405
1492.4,1.63044,767463.0,17973
1496.67,1.6353,758614.0,17568
1499.86,1.62052,751802.0,18013
1503.04,1.623724,744297.0,17702
1506.23,1.62138,735980.0,17599
1509.41,1.62371,728040.0,17316
1512.58,1.6251,719703.0,17063
1515.75,1.61006,710982.0,17450
1518.92,1.60962,702409.0,17257
1522.08,1.60289,693280.0,17299
1525.24,1.62091,683935.0,16372
1529.44,1.61453,671492.0,16312
1532.59,1.60596,661352.0,16386
1535.73,1.6045,650841.0,16180
1538.87,1.60257,640156.0,15985
1542,1.60776,629036.0,15521
1545.13,1.60229,617445.0,15428
1548.26,1.60247,605527.0,15124
1551.38,1.61186,594133.0,14522
1554.49,1.61915,582894.0,14010
1557.61,1.61649,571271.0,13815
1561.75,1.607389,555940.0,13729
1564.85,1.61064,544812.0,13354
1567.95,1.58919,533402.0,13736
1571.05,1.62038,521915.0,12509
1574.14,1.62078,510788.0,12231
1577.22,1.61039,499607.0,12253
1580.3,1.61188,487992.0,11927
1583.38,1.61227,476265.0,11630
1586.45,1.61187,464618.0,11356
1589.52,1.60097,452782.0,11348
1593.6,1.62843,436897.0,10279
1596.66,1.61359,425551.0,10360
1599.71,1.62962,414191.0,9718
1602.76,1.6259,402799.0,9532
1605.81,1.62069,391352.0,9373
1608.85,1.61008,380811.0,9346
1611.89,1.62758,370076.0,8724
1614.92,1.62628,359798.0,8507
1617.95,1.624005,349165.0,8299
1620.97,1.6383,338717.0,7790
1624.99,1.62378,325435.0,7739
1628.01,1.63987,315463.0,7229
1631.02,1.641442,305570.0,6977
1634.02,1.64042,295762.0,6769
1637.02,1.63669,286306.0,6609
1640.02,1.61977,276696.0,6641
1643.01,1.633916,267004.0,6203
1646,1.664351,257531.0,5578
1648.98,1.68478,247817.0,5121
1651.96,1.65965,238547.0,5223
1655.93,1.62686,225092.0,5315
1658.89,1.65285,214425.0,4769
1661.86,1.65927,202241.0,4432
1664.82,1.62629,188046.0,4446
1667.78,1.64026,171566.0,3928
1670.73,1.62838,154101.0,3626
1673.67,1.55839,134892.0,3729
1676.62,1.56693,115325.0,3126
1679.56,1.62505,97255.0,2306
1682.49,1.64258,81017.0,1845
1686.4,1.62056,63571.0,1523
1689.32,1.79338,53566.0,862
1692.24,1.87763,45493.0,603
1695.16,2.0544,39217.0,346
1698.07,2.04696,33537.0,301
1700.97,1.79671,29118.0,465