File: Data/PP/PP2_Column 1_20211230_112819.csv
***Scan Config Information***,,,,,,,***Reference Scan Information***,,,,,,,,
Scan Config Name:,Column 1,,,,,,Scan Config Name:,Built-in Factory Reference,,,,,,
Scan Config Type:,Slew,Num Section:,1,,,,Scan Config Type:,Slew,Num Section:,1,,,,,
Section Config Type:,Column,,,,,,Section Config Type:,Column,,,,,,,
Start Wavelength (nm):,900,,,,,,Start Wavelength (nm):,900.0,,,,,,
End Wavelength (nm):,1700,,,,,,End Wavelength (nm):,1700.0,,,,,,
Pattern Width (nm):,7.03,,,,,,Pattern Width (nm):,7.03,,,,,,,
Exposure (ms):,0.635,,,,,,Exposure (ms):,0.635,,,,,,,
Digital Resolution:,228,,,,,,Digital Resolution:,228,,,,,,,
Num Repeats:,6,,,,,,Num Repeats:,30,,,,,,,
PGA Gain:,64,,,,,,PGA Gain:,64,,,,,,
System Temp (C):,25.26,,,,,,System Temp (C):,24.17,,,,,,,
Humidity (%):,38.91,,,,,,Humidity (%):,30.0,,,,,,
Battery Capacity (%):,58,,,,,,Lamp Intensity:,2449,,,,,,,
Lamp Intensity:,2524,,,,,,Data Date-Time:,19/12/12T12:44:54,,,,,,
Data Date-Time:,18/1/1T7:7:38,,,,,,,,,,,,,,
Total Measurement Time in sec:,4.078,,,,,,,,,,,,,
***General Information***,,,,,,,***Calibration Coefficients***,,,,,,,,
Model Name:,NIR-S-G1,,,,,,Shift Vector Coefficients:,-8.44101,0.0554567,-8.45244e-05,,,,,
Serial Number:,947R055,95UB122GC0A947R055,,,,,Pixel to Wavelength Coefficients:,1795.87,-0.92014,-0.00023961,,,,,
APP Version:,2.16.7,,,,,,,,,,,,,
TIVA Version:,2.4.4,,,,,,***Lamp Usage * **,,,,,,,,
UUID:,de:67:c:88:67:2c:2d:21,,,,,,Total Time(HH:MM:SS):,12min 54sec ,,,,,,,
Main Board Version:,D,,,,,,***Device/Error Status***,,,,,,,,
Detector Board Version:,B,,,,,,Device Status:,0x00000031,,,,,,
,,,,,,,Error status:,0x00000000,Error Code:,0x00000000000000000000000000000000,,,,,
,,,,,,,,,Error Details:,Not Found,,,,,
***Scan Data***,,,,,,,,,,,,,,,
Wavelength (nm),Absorbance (AU),Reference Signal (unitless),Sample Signal (unitless)
901.841,1.72225,99968.0,1895
905.754,1.63137,108993.0,2547
909.663,1.62603,118185.0,2796
913.568,1.64114,129285.0,2954
917.469,1.72567,143347.0,2696
921.365,1.73123,160437.0,2979
925.257,1.7398,180387.0,3284
929.144,1.702925,201426.0,3992
933.028,1.74907,220694.0,3933
936.906,1.71966,237501.0,4529
942.072,1.710021,256956.0,5010
945.94,1.7189,270636.0,5170
949.805,1.69877,283621.0,5675
953.665,1.70796,296982.0,5818
957.521,1.705565,310733.0,6121
961.373,1.71594,324587.0,6243
965.22,1.708425,339205.0,6638
969.063,1.69447,353669.0,7147
972.902,1.70689,368253.0,7232
976.736,1.6998,382531.0,7636
981.842,1.71473,399901.0,7713
985.666,1.73934,411528.0,7500
989.486,1.6981,422199.0,8461
993.302,1.71809,431172.0,8252
997.113,1.73042,438051.0,8149
1000.92,1.72094,444216.0,8446
1004.72,1.73065,449307.0,8354
1008.52,1.729355,453601.0,8459
1012.32,1.71083,456801.0,8890
1016.11,1.72124,459312.0,8727
1021.15,1.72017,461643.0,8793
1024.93,1.73241,463069.0,8575
1028.71,1.69744,463868.0,9310
1032.48,1.72481,464326.0,8750
1036.24,1.71453,466001.0,8992
1040.01,1.734647,466870.0,8601
1043.77,1.71251,467033.0,9054
1047.52,1.72389,467045.0,8820
1051.27,1.73941,467467.0,8518
1055.01,1.73018,467627.0,8704
1060,1.71604,468351.0,9006
1063.74,1.73496,469050.0,8635
1067.47,1.72662,469880.0,8818
1071.19,1.740453,471228.0,8566
1074.92,1.72913,472558.0,8817
1078.63,1.73564,474087.0,8714
1082.35,1.74672,476569.0,8539
1086.06,1.72481,479445.0,9035
1089.76,1.7296,481756.0,8979
1093.46,1.73454,485147.0,8940
1098.39,1.73113,489755.0,9096
1102.08,1.73609,493535.0,9062
1105.77,1.73512,497426.0,9154
1109.45,1.73707,501308.0,9184
1113.13,1.72986,505725.0,9420
1116.8,1.74937,509421.0,9072
1120.47,1.74229,513217.0,9290
1124.13,1.73338,517470.0,9561
1127.79,1.76062,521690.0,9053
1131.45,1.74748,526099.0,9410
1136.32,1.75395,531329.0,9363
1139.96,1.76823,535549.0,9132
1143.61,1.76902,539808.0,9188
1147.24,1.77358,543900.0,9161
1150.88,1.78742,547908.0,8939
1154.5,1.76705,552170.0,9441
1158.13,1.79815,556773.0,8862
1161.75,1.78695,561098.0,9164
1165.36,1.80004,565898.0,8968
1168.98,1.80567,571300.0,8937
1172.58,1.80102,576602.0,9117
1177.39,1.82241,584320.0,8795
1180.98,1.82234,589396.0,8873
1184.58,1.83235,596143.0,8770
1188.16,1.85554,602955.0,8409
1191.75,1.85402,609704.0,8533
1195.33,1.8602,617215.0,8516
1198.9,1.86197,624471.0,8581
1202.48,1.85918,632472.0,8747
1206.04,1.86018,640381.0,8836
1209.61,1.85484,648161.0,9054
1214.35,1.851107,659999.0,9299
1217.9,1.85002,668609.0,9444
1221.45,1.85003,677405.0,9568
1224.99,1.85031,686281.0,9687
1228.53,1.82573,695317.0,10386
1232.07,1.80034,704063.0,11150
1235.6,1.8095,713007.0,11056
1239.13,1.79121,721330.0,11666
1242.65,1.78514,730030.0,11973
1246.17,1.79689,737591.0,11774
1250.85,1.78306,746809.0,12307
1254.36,1.7951,753336.0,12075
1257.86,1.77819,759907.0,12664
1261.36,1.771259,766538.0,12980
1264.86,1.779376,774802.0,12877
1268.35,1.78129,784025.0,12973
1271.83,1.77851,794336.0,13228
1275.32,1.7866,804198.0,13145
1278.79,1.76946,813836.0,13838
1282.27,1.77527,823595.0,13818
1286.89,1.757299,834533.0,14593
1290.36,1.77899,842581.0,14016
1293.81,1.77272,849301.0,14333
1297.27,1.77139,856026.0,14491
1300.72,1.773941,862498.0,14515
1304.17,1.770705,868068.0,14718
1307.61,1.78887,872869.0,14193
1311.05,1.7731,877616.0,14798
1314.48,1.77576,881872.0,14779
1317.91,1.77206,885520.0,14967
1322.47,1.7726,888917.0,15006
1325.89,1.7732,891687.0,15032
1329.31,1.77294,894001.0,15080
1332.72,1.77824,895438.0,14921
1336.12,1.76535,896641.0,15391
1339.52,1.77191,897974.0,15183
1342.92,1.78128,898777.0,14872
1346.31,1.78442,898783.0,14765
1349.7,1.79115,898350.0,14531
1353.09,1.79351,896784.0,14427
1357.59,1.79818,895293.0,14249
1360.97,1.82111,892755.0,13478
1364.34,1.8192,890430.0,13502
1367.7,1.81968,888504.0,13458
1371.06,1.83767,885825.0,12873
1374.42,1.85347,881046.0,12346
1377.77,1.85552,874030.0,12190
1381.12,1.856983,865751.0,12034
1384.47,1.85992,857799.0,11843
1387.81,1.866046,851759.0,11595
1392.25,1.86407,846500.0,11576
1395.58,1.86742,843622.0,11448
1398.91,1.87678,841228.0,11172
1402.23,1.86156,838489.0,11533
1405.55,1.86147,836065.0,11502
1408.86,1.86849,834396.0,11295
1412.17,1.82432,832187.0,12471
1415.47,1.85405,830123.0,11617
1418.77,1.85105,828244.0,11671
1422.07,1.83492,827314.0,12099
1426.45,1.85006,826435.0,11672
1429.74,1.8446,825475.0,11806
1433.02,1.84076,824938.0,11903
1436.29,1.85092,823959.0,11614
1439.57,1.83262,823822.0,12112
1442.83,1.8475,823184.0,11695
1446.1,1.834473,821953.0,12033
1449.36,1.83905,821135.0,11895
1452.61,1.82657,819413.0,12216
1455.86,1.81784,817492.0,12435
1459.11,1.81286,814862.0,12538
1463.43,1.8006,811075.0,12837
1466.67,1.81175,807671.0,12459
1469.9,1.80645,803699.0,12550
1473.13,1.79773,799396.0,12736
1476.35,1.80131,795129.0,12564
1479.57,1.80963,790127.0,12248
1482.78,1.82428,784937.0,11764
1486,1.81251,779544.0,12004
1489.2,1.80649,773733.0,12081
1492.4,1.80711,767463.0,11966
1496.67,1.80436,758614.0,11903
1499.86,1.80096,751802.0,11889
1503.04,1.79887,744297.0,11827
1506.23,1.78859,735980.0,11975
1509.41,1.80578,728040.0,11386
1512.58,1.7921,719703.0,11616
1515.75,1.78319,710982.0,11713
1518.92,1.77427,702409.0,11812
1522.08,1.7778,693280.0,11564
1525.24,1.780785,683935.0,11330
1529.44,1.78309,671492.0,11065
1532.59,1.77884,661352.0,11005
1535.73,1.77797,650841.0,10852
1538.87,1.775322,640156.0,10739
1542,1.7774,629036.0,10502
1545.13,1.79021,617445.0,10009
1548.26,1.769887,605527.0,10286
1551.38,1.75974,594133.0,10331
1554.49,1.7812,582894.0,9647
1557.61,1.76522,571271.0,9809
1561.75,1.77678,555940.0,9295
1564.85,1.77936,544812.0,9055
1567.95,1.76402,533402.0,9184
1571.05,1.75306,521915.0,9216
1574.14,1.76772,510788.0,8720
1577.22,1.7745,499607.0,8397
1580.3,1.79249,487992.0,7869
1583.38,1.75367,476265.0,8398
1586.45,1.75866,464618.0,8099
1589.52,1.78234,452782.0,7474
1593.6,1.78383,436897.0,7187
1596.66,1.767716,425551.0,7265
1599.71,1.7684,414191.0,7060
1602.76,1.76154,402799.0,6975
1605.81,1.77712,391352.0,6538
1608.85,1.76981,380811.0,6470
1611.89,1.76648,370076.0,6336
1614.92,1.76423,359798.0,6192
1617.95,1.78382,349165.0,5744
1620.97,1.766409,338717.0,5800
1624.99,1.77903,325435.0,5413
1628.01,1.785122,315463.0,5174
1631.02,1.77839,305570.0,5090
1634.02,1.76474,295762.0,5084
1637.02,1.78188,286306.0,4731
1640.02,1.78133,276696.0,4578
1643.01,1.77032,267004.0,4531
1646,1.78387,257531.0,4236
1648.98,1.76248,247817.0,4282
1651.96,1.72562,238547.0,4487
1655.93,1.77121,225092.0,3812
1658.89,1.770174,214425.0,3640
1661.86,1.73696,202241.0,3706
1664.82,1.75799,188046.0,3283
1667.78,1.73419,171566.0,3164
1670.73,1.703221,154101.0,3052
1673.67,1.77896,134892.0,2244
1676.62,1.76526,115325.0,1980
1679.56,1.74487,97255.0,1750
1682.49,1.706906,81017.0,1591
1686.4,1.63036,63571.0,1489
1689.32,2.068973,53566.0,457
1692.24,2.07136,45493.0,386
1695.16,1.59478,39217.0,997
1698.07,1.841577,33537.0,483
1700.97,1.78655,29118.0,476