File: Data/PP/PP3_Column 1_20211230_112835.csv
***Scan Config Information***,,,,,,,***Reference Scan Information***,,,,,,,,
Scan Config Name:,Column 1,,,,,,Scan Config Name:,Built-in Factory Reference,,,,,,
Scan Config Type:,Slew,Num Section:,1,,,,Scan Config Type:,Slew,Num Section:,1,,,,,
Section Config Type:,Column,,,,,,Section Config Type:,Column,,,,,,,
Start Wavelength (nm):,900,,,,,,Start Wavelength (nm):,900.0,,,,,,
End Wavelength (nm):,1700,,,,,,End Wavelength (nm):,1700.0,,,,,,
Pattern Width (nm):,7.03,,,,,,Pattern Width (nm):,7.03,,,,,,,
Exposure (ms):,0.635,,,,,,Exposure (ms):,0.635,,,,,,,
Digital Resolution:,228,,,,,,Digital Resolution:,228,,,,,,,
Num Repeats:,6,,,,,,Num Repeats:,30,,,,,,,
PGA Gain:,64,,,,,,PGA Gain:,64,,,,,,
System Temp (C):,25.44,,,,,,System Temp (C):,24.17,,,,,,,
Humidity (%):,38.99,,,,,,Humidity (%):,30.0,,,,,,
Battery Capacity (%):,58,,,,,,Lamp Intensity:,2449,,,,,,,
Lamp Intensity:,2526,,,,,,Data Date-Time:,19/12/12T12:44:54,,,,,,
Data Date-Time:,18/1/1T7:7:53,,,,,,,,,,,,,,
Total Measurement Time in sec:,5.3,,,,,,,,,,,,,
***General Information***,,,,,,,***Calibration Coefficients***,,,,,,,,
Model Name:,NIR-S-G1,,,,,,Shift Vector Coefficients:,-8.44101,0.0554567,-8.45244e-05,,,,,
Serial Number:,947R055,95UB122GC0A947R055,,,,,Pixel to Wavelength Coefficients:,1795.87,-0.92014,-0.00023961,,,,,
APP Version:,2.16.7,,,,,,,,,,,,,
TIVA Version:,2.4.4,,,,,,***Lamp Usage * **,,,,,,,,
UUID:,de:67:c:88:67:2c:2d:21,,,,,,Total Time(HH:MM:SS):,12min 56sec ,,,,,,,
Main Board Version:,D,,,,,,***Device/Error Status***,,,,,,,,
Detector Board Version:,B,,,,,,Device Status:,0x00000031,,,,,,
,,,,,,,Error status:,0x00000000,Error Code:,0x00000000000000000000000000000000,,,,,
,,,,,,,,,Error Details:,Not Found,,,,,
***Scan Data***,,,,,,,,,,,,,,,
Wavelength (nm),Absorbance (AU),Reference Signal (unitless),Sample Signal (unitless)
901.841,1.89846,99968.0,1263
905.754,1.84372,108993.0,1562
909.663,1.82557,118185.0,1766
913.568,1.79244,129285.0,2085
917.469,1.87513,143347.0,1911
921.365,1.93068,160437.0,1882
925.257,1.83873,180387.0,2615
929.144,1.74254,201426.0,3644
933.028,1.74851,220694.0,3938
936.906,1.81708,237501.0,3619
942.072,1.86529,256956.0,3504
945.94,1.85169,270636.0,3808
949.805,1.8325,283621.0,4171
953.665,1.79421,296982.0,4770
957.521,1.79691,310733.0,4960
961.373,1.78738,324587.0,5296
965.22,1.79718,339205.0,5411
969.063,1.81709,353669.0,5389
972.902,1.805347,368253.0,5765
976.736,1.83262,382531.0,5624
981.842,1.81612,399901.0,6107
985.666,1.79611,411528.0,6581
989.486,1.7966,422199.0,6744
993.302,1.78757,431172.0,7032
997.113,1.82165,438051.0,6605
1000.92,1.78528,444216.0,7283
1004.72,1.83392,449307.0,6586
1008.52,1.78324,453601.0,7472
1012.32,1.80227,456801.0,7202
1016.11,1.80105,459312.0,7262
1021.15,1.81562,461643.0,7058
1024.93,1.805128,463069.0,7253
1028.71,1.8179,463868.0,7055
1032.48,1.79654,464326.0,7418
1036.24,1.80626,466001.0,7280
1040.01,1.82397,466870.0,7002
1043.77,1.81535,467033.0,7145
1047.52,1.808901,467045.0,7252
1051.27,1.82484,467467.0,6997
1055.01,1.82791,467627.0,6950
1060,1.82232,468351.0,7051
1063.74,1.82106,469050.0,7082
1067.47,1.81798,469880.0,7145
1071.19,1.83106,471228.0,6953
1074.92,1.7991,472558.0,7505
1078.63,1.81853,474087.0,7200
1082.35,1.8116,476569.0,7354
1086.06,1.82753,479445.0,7132
1089.76,1.82495,481756.0,7209
1093.46,1.81741,485147.0,7387
1098.39,1.79683,489755.0,7819
1102.08,1.82052,493535.0,7461
1105.77,1.81557,497426.0,7606
1109.45,1.805235,501308.0,7850
1113.13,1.82111,505725.0,7635
1116.8,1.85809,509421.0,7063
1120.47,1.81715,513217.0,7819
1124.13,1.85337,517470.0,7253
1127.79,1.82901,521690.0,7734
1131.45,1.84769,526099.0,7471
1136.32,1.83083,531329.0,7844
1139.96,1.85143,535549.0,7540
1143.61,1.86999,539808.0,7282
1147.24,1.85305,543900.0,7629
1150.88,1.84684,547908.0,7796
1154.5,1.8736,552170.0,7387
1158.13,1.87868,556773.0,7362
1161.75,1.89207,561098.0,7194
1165.36,1.85914,565898.0,7827
1168.98,1.88082,571300.0,7517
1172.58,1.91005,576602.0,7093
1177.39,1.91576,584320.0,7094
1180.98,1.929862,589396.0,6927
1184.58,1.92269,596143.0,7123
1188.16,1.93668,602955.0,6976
1191.75,1.93142,609704.0,7140
1195.33,1.95844,617215.0,6792
1198.9,1.94145,624471.0,7146
1202.48,1.91829,632472.0,7634
1206.04,1.92574,640381.0,7598
1209.61,1.94967,648161.0,7278
1214.35,1.92539,659999.0,7837
1217.9,1.92535,668609.0,7940
1221.45,1.9406,677405.0,7767
1224.99,1.91721,686281.0,8304
1228.53,1.883858,695317.0,9085
1232.07,1.89429,704063.0,8981
1235.6,1.87491,713007.0,9510
1239.13,1.88041,721330.0,9500
1242.65,1.88869,730030.0,9433
1246.17,1.84986,737591.0,10422
1250.85,1.85413,746809.0,10449
1254.36,1.85634,753336.0,10487
1257.86,1.84794,759907.0,10785
1261.36,1.84405,766538.0,10977
1264.86,1.8452,774802.0,11066
1268.35,1.84706,784025.0,11150
1271.83,1.8351,794336.0,11612
1275.32,1.83091,804198.0,11870
1278.79,1.856422,813836.0,11327
1282.27,1.83911,823595.0,11929
1286.89,1.84335,834533.0,11970
1290.36,1.84004,842581.0,12178
1293.81,1.83153,849301.0,12518
1297.27,1.85661,856026.0,11909
1300.72,1.83899,862498.0,12496
1304.17,1.82837,868068.0,12888
1307.61,1.84068,872869.0,12597
1311.05,1.84262,877616.0,12609
1314.48,1.84188,881872.0,12692
1317.91,1.84669,885520.0,12604
1322.47,1.83827,888917.0,12900
1325.89,1.844532,891687.0,12755
1329.31,1.83883,894001.0,12957
1332.72,1.84306,895438.0,12852
1336.12,1.83807,896641.0,13018
1339.52,1.83355,897974.0,13174
1342.92,1.83814,898777.0,13047
1346.31,1.84182,898783.0,12937
1349.7,1.85218,898350.0,12626
1353.09,1.85815,896784.0,12432
1357.59,1.857564,895293.0,12428
1360.97,1.87079,892755.0,12021
1364.34,1.87573,890430.0,11854
1367.7,1.86879,888504.0,12019
1371.06,1.90093,885825.0,11128
1374.42,1.88276,881046.0,11541
1377.77,1.90794,874030.0,10804
1381.12,1.9148,865751.0,10534
1384.47,1.91381,857799.0,10461
1387.81,1.93167,851759.0,9969
1392.25,1.91445,846500.0,10308
1395.58,1.935587,843622.0,9785
1398.91,1.932007,841228.0,9838
1402.23,1.9178,838489.0,10132
1405.55,1.91304,836065.0,10214
1408.86,1.91252,834396.0,10206
1412.17,1.91526,832187.0,10115
1415.47,1.895273,830123.0,10565
1418.77,1.90439,828244.0,10322
1422.07,1.90576,827314.0,10278
1426.45,1.9029,826435.0,10335
1429.74,1.91818,825475.0,9966
1433.02,1.91882,824938.0,9945
1436.29,1.9183,823959.0,9945
1439.57,1.89209,823822.0,10562
1442.83,1.88127,823184.0,10820
1446.1,1.91182,821953.0,10070
1449.36,1.89376,821135.0,10487
1452.61,1.88632,819413.0,10646
1455.86,1.88079,817492.0,10757
1459.11,1.89143,814862.0,10463
1463.43,1.86802,811075.0,10991
1466.67,1.86889,807671.0,10923
1469.9,1.8747,803699.0,10725
1473.13,1.87184,799396.0,10738
1476.35,1.8581,795129.0,11024
1479.57,1.8554,790127.0,11023
1482.78,1.870267,784937.0,10582
1486,1.86838,779544.0,10555
1489.2,1.85132,773733.0,10896
1492.4,1.85183,767463.0,10795
1496.67,1.86286,758614.0,10403
1499.86,1.84684,751802.0,10697
1503.04,1.85609,744297.0,10367
1506.23,1.84378,735980.0,10546
1509.41,1.848139,728040.0,10328
1512.58,1.84962,719703.0,10175
1515.75,1.85312,710982.0,9971
1518.92,1.84235,702409.0,10098
1522.08,1.83214,693280.0,10204
1525.24,1.85351,683935.0,9583
1529.44,1.85285,671492.0,9423
1532.59,1.83415,661352.0,9689
1535.73,1.83044,650841.0,9617
1538.87,1.82674,640156.0,9540
1542,1.82546,629036.0,9402
1545.13,1.82502,617445.0,9238
1548.26,1.829341,605527.0,8970
1551.38,1.85491,594133.0,8298
1554.49,1.83653,582894.0,8493
1557.61,1.85386,571271.0,7998
1561.75,1.83408,555940.0,8146
1564.85,1.81456,544812.0,8350
1567.95,1.8096,533402.0,8269
1571.05,1.82623,521915.0,7787
1574.14,1.83018,510788.0,7552
1577.22,1.84003,499607.0,7221
1580.3,1.813062,487992.0,7505
1583.38,1.82082,476265.0,7195
1586.45,1.8243,464618.0,6963
1589.52,1.81641,452782.0,6910
1593.6,1.81599,436897.0,6674
1596.66,1.83113,425551.0,6278
1599.71,1.826,414191.0,6183
1602.76,1.816,402799.0,6153
1605.81,1.80731,391352.0,6099
1608.85,1.8243,380811.0,5707
1611.89,1.83921,370076.0,5359
1614.92,1.8354,359798.0,5256
1617.95,1.84086,349165.0,5037
1620.97,1.813,338717.0,5210
1624.99,1.8296,325435.0,4818
1628.01,1.84525,315463.0,4505
1631.02,1.81962,305570.0,4629
1634.02,1.7948,295762.0,4744
1637.02,1.79806,286306.0,4558
1640.02,1.82511,276696.0,4139
1643.01,1.86363,267004.0,3655
1646,1.80456,257531.0,4039
1648.98,1.80867,247817.0,3850
1651.96,1.8075,238547.0,3716
1655.93,1.81141,225092.0,3475
1658.89,1.84202,214425.0,3085
1661.86,1.80577,202241.0,3163
1664.82,1.81037,188046.0,2910
1667.78,1.83355,171566.0,2517
1670.73,1.74298,154101.0,2785
1673.67,1.90133,134892.0,1693
1676.62,1.81666,115325.0,1759
1679.56,1.877659,97255.0,1289
1682.49,1.895739,81017.0,1030
1686.4,1.898003,63571.0,804
1689.32,2.06992,53566.0,456
1692.24,1.74839,45493.0,812
1695.16,1.94511,39217.0,445
1698.07,2.05277,33537.0,297
1700.97,1.98415,29118.0,302