File: Data/PP/PP5_Column 1_20211230_112909.csv
***Scan Config Information***,,,,,,,***Reference Scan Information***,,,,,,,,
Scan Config Name:,Column 1,,,,,,Scan Config Name:,Built-in Factory Reference,,,,,,
Scan Config Type:,Slew,Num Section:,1,,,,Scan Config Type:,Slew,Num Section:,1,,,,,
Section Config Type:,Column,,,,,,Section Config Type:,Column,,,,,,,
Start Wavelength (nm):,900,,,,,,Start Wavelength (nm):,900.0,,,,,,
End Wavelength (nm):,1700,,,,,,End Wavelength (nm):,1700.0,,,,,,
Pattern Width (nm):,7.03,,,,,,Pattern Width (nm):,7.03,,,,,,,
Exposure (ms):,0.635,,,,,,Exposure (ms):,0.635,,,,,,,
Digital Resolution:,228,,,,,,Digital Resolution:,228,,,,,,,
Num Repeats:,6,,,,,,Num Repeats:,30,,,,,,,
PGA Gain:,64,,,,,,PGA Gain:,64,,,,,,
System Temp (C):,25.82,,,,,,System Temp (C):,24.17,,,,,,,
Humidity (%):,39.12,,,,,,Humidity (%):,30.0,,,,,,
Battery Capacity (%):,58,,,,,,Lamp Intensity:,2449,,,,,,,
Lamp Intensity:,2535,,,,,,Data Date-Time:,19/12/12T12:44:54,,,,,,
Data Date-Time:,18/1/1T7:8:28,,,,,,,,,,,,,,
Total Measurement Time in sec:,4.398,,,,,,,,,,,,,
***General Information***,,,,,,,***Calibration Coefficients***,,,,,,,,
Model Name:,NIR-S-G1,,,,,,Shift Vector Coefficients:,-8.44101,0.0554567,-8.45244e-05,,,,,
Serial Number:,947R055,95UB122GC0A947R055,,,,,Pixel to Wavelength Coefficients:,1795.87,-0.92014,-0.00023961,,,,,
APP Version:,2.16.7,,,,,,,,,,,,,
TIVA Version:,2.4.4,,,,,,***Lamp Usage * **,,,,,,,,
UUID:,de:67:c:88:67:2c:2d:21,,,,,,Total Time(HH:MM:SS):,13min 1sec ,,,,,,,
Main Board Version:,D,,,,,,***Device/Error Status***,,,,,,,,
Detector Board Version:,B,,,,,,Device Status:,0x00000031,,,,,,
,,,,,,,Error status:,0x00000000,Error Code:,0x00000000000000000000000000000000,,,,,
,,,,,,,,,Error Details:,Not Found,,,,,
***Scan Data***,,,,,,,,,,,,,,,
Wavelength (nm),Absorbance (AU),Reference Signal (unitless),Sample Signal (unitless)
901.841,1.51103,99968.0,3082
905.754,1.47582,108993.0,3644
909.663,1.501203,118185.0,3727
913.568,1.50356,129285.0,4055
917.469,1.50269,143347.0,4505
921.365,1.509123,160437.0,4968
925.257,1.51074,180387.0,5565
929.144,1.48182,201426.0,6642
933.028,1.50299,220694.0,6931
936.906,1.51163,237501.0,7312
942.072,1.48095,256956.0,8490
945.94,1.48642,270636.0,8830
949.805,1.47906,283621.0,9412
953.665,1.49923,296982.0,9408
957.521,1.48272,310733.0,10225
961.373,1.48488,324587.0,10628
965.22,1.49033,339205.0,10968
969.063,1.48968,353669.0,11453
972.902,1.49235,368253.0,11852
976.736,1.49524,382531.0,12230
981.842,1.48871,399901.0,12979
985.666,1.48349,411528.0,13518
989.486,1.47741,422199.0,14064
993.302,1.48543,431172.0,14100
997.113,1.48419,438051.0,14366
1000.92,1.49101,444216.0,14341
1004.72,1.49636,449307.0,14328
1008.52,1.49173,453601.0,14620
1012.32,1.48395,456801.0,14989
1016.11,1.48738,459312.0,14953
1021.15,1.49936,461643.0,14620
1024.93,1.48667,463069.0,15100
1028.71,1.49321,463868.0,14900
1032.48,1.5078,464326.0,14422
1036.24,1.49389,466001.0,14945
1040.01,1.49791,466870.0,14835
1043.77,1.50378,467033.0,14641
1047.52,1.48812,467045.0,15179
1051.27,1.49288,467467.0,15027
1055.01,1.50578,467627.0,14592
1060,1.49914,468351.0,14840
1063.74,1.495012,469050.0,15004
1067.47,1.509811,469880.0,14527
1071.19,1.50112,471228.0,14863
1074.92,1.49401,472558.0,15151
1078.63,1.49205,474087.0,15269
1082.35,1.500647,476569.0,15048
1086.06,1.51083,479445.0,14788
1089.76,1.505897,481756.0,15029
1093.46,1.50871,485147.0,15037
1098.39,1.48621,489755.0,15987
1102.08,1.49458,493535.0,15803
1105.77,1.4941,497426.0,15945
1109.45,1.51391,501308.0,15353
1113.13,1.50326,505725.0,15873
1116.8,1.50554,509421.0,15905
1120.47,1.50537,513217.0,16030
1124.13,1.5033,517470.0,16240
1127.79,1.51452,521690.0,15955
1131.45,1.50287,526099.0,16527
1136.32,1.5028,531329.0,16694
1139.96,1.51797,535549.0,16249
1143.61,1.52364,539808.0,16166
1147.24,1.54223,543900.0,15606
1150.88,1.53375,547908.0,16031
1154.5,1.53652,552170.0,16053
1158.13,1.55144,556773.0,15640
1161.75,1.55272,561098.0,15715
1165.36,1.55356,565898.0,15819
1168.98,1.56171,571300.0,15673
1172.58,1.56525,576602.0,15690
1177.39,1.574697,584320.0,15558
1180.98,1.60549,589396.0,14619
1184.58,1.60342,596143.0,14857
1188.16,1.62159,602955.0,14411
1191.75,1.62652,609704.0,14408
1195.33,1.6387,617215.0,14182
1198.9,1.634294,624471.0,14495
1202.48,1.62342,632472.0,15053
1206.04,1.62459,640381.0,15200
1209.61,1.60857,648161.0,15963
1214.35,1.60989,659999.0,16205
1217.9,1.62402,668609.0,15891
1221.45,1.60513,677405.0,16816
1224.99,1.58367,686281.0,17899
1228.53,1.59318,695317.0,17742
1232.07,1.57675,704063.0,18658
1235.6,1.56594,713007.0,19371
1239.13,1.55145,721330.0,20262
1242.65,1.54869,730030.0,20637
1246.17,1.53997,737591.0,21274
1250.85,1.53253,746809.0,21912
1254.36,1.53595,753336.0,21930
1257.86,1.53531,759907.0,22154
1261.36,1.53617,766538.0,22303
1264.86,1.52421,774802.0,23173
1268.35,1.53132,784025.0,23068
1271.83,1.51981,794336.0,23999
1275.32,1.53072,804198.0,23694
1278.79,1.53094,813836.0,23966
1282.27,1.52091,823595.0,24820
1286.89,1.52577,834533.0,24870
1290.36,1.52694,842581.0,25042
1293.81,1.52949,849301.0,25094
1297.27,1.52858,856026.0,25346
1300.72,1.53253,862498.0,25306
1304.17,1.52215,868068.0,26086
1307.61,1.52795,872869.0,25882
1311.05,1.52088,877616.0,26450
1314.48,1.51868,881872.0,26713
1317.91,1.51979,885520.0,26755
1322.47,1.52473,888917.0,26554
1325.89,1.529,891687.0,26376
1329.31,1.5287,894001.0,26463
1332.72,1.53157,895438.0,26331
1336.12,1.53266,896641.0,26300
1339.52,1.52639,897974.0,26722
1342.92,1.52547,898777.0,26803
1346.31,1.5356,898783.0,26185
1349.7,1.52703,898350.0,26694
1353.09,1.545093,896784.0,25562
1357.59,1.5585,895293.0,24744
1360.97,1.56776,892755.0,24153
1364.34,1.57492,890430.0,23696
1367.7,1.5864,888504.0,23028
1371.06,1.5834,885825.0,23118
1374.42,1.58913,881046.0,22692
1377.77,1.60275,874030.0,21816
1381.12,1.60708,865751.0,21395
1384.47,1.62095,857799.0,20532
1387.81,1.62214,851759.0,20332
1392.25,1.62742,846500.0,19962
1395.58,1.63589,843622.0,19510
1398.91,1.63441,841228.0,19521
1402.23,1.629936,838489.0,19659
1405.55,1.6171,836065.0,20190
1408.86,1.61313,834396.0,20335
1412.17,1.61198,832187.0,20335
1415.47,1.61244,830123.0,20263
1418.77,1.608592,828244.0,20397
1422.07,1.60288,827314.0,20644
1426.45,1.60187,826435.0,20670
1429.74,1.5961,825475.0,20922
1433.02,1.59379,824938.0,21020
1436.29,1.59774,823959.0,20805
1439.57,1.59565,823822.0,20902
1442.83,1.594458,823184.0,20943
1446.1,1.58632,821953.0,21307
1449.36,1.5898,821135.0,21116
1452.61,1.583678,819413.0,21371
1455.86,1.58566,817492.0,21224
1459.11,1.58154,814862.0,21357
1463.43,1.57836,811075.0,21414
1466.67,1.56548,807671.0,21966
1469.9,1.57249,803699.0,21508
1473.13,1.57184,799396.0,21425
1476.35,1.56643,795129.0,21578
1479.57,1.56964,790127.0,21284
1482.78,1.57026,784937.0,21114
1486,1.56828,779544.0,21065
1489.2,1.57258,773733.0,20702
1492.4,1.55278,767463.0,21492
1496.67,1.55836,758614.0,20973
1499.86,1.56236,751802.0,20594
1503.04,1.55446,744297.0,20763
1506.23,1.55376,735980.0,20564
1509.41,1.54747,728040.0,20639
1512.58,1.55165,719703.0,20207
1515.75,1.55048,710982.0,20016
1518.92,1.54027,702409.0,20245
1522.08,1.54947,693280.0,19563
1525.24,1.54356,683935.0,19564
1529.44,1.54605,671492.0,19098
1532.59,1.5539,661352.0,18473
1535.73,1.53376,650841.0,19042
1538.87,1.54426,640156.0,18282
1542,1.53554,629036.0,18329
1545.13,1.54045,617445.0,17789
1548.26,1.54346,605527.0,17325
1551.38,1.54349,594133.0,16998
1554.49,1.5442,582894.0,16649
1557.61,1.53368,571271.0,16717
1561.75,1.54494,555940.0,15852
1564.85,1.53072,544812.0,16052
1567.95,1.53821,533402.0,15447
1571.05,1.55343,521915.0,14594
1574.14,1.54013,510788.0,14727
1577.22,1.54521,499607.0,14237
1580.3,1.54904,487992.0,13784
1583.38,1.55194,476265.0,13363
1586.45,1.54817,464618.0,13150
1589.52,1.54369,452782.0,12948
1593.6,1.54657,436897.0,12411
1596.66,1.54448,425551.0,12147
1599.71,1.56064,414191.0,11391
1602.76,1.55197,402799.0,11301
1605.81,1.55403,391352.0,10928
1608.85,1.556347,380811.0,10577
1611.89,1.54188,370076.0,10627
1614.92,1.56866,359798.0,9714
1617.95,1.567507,349165.0,9452
1620.97,1.56234,338717.0,9279
1624.99,1.5747,325435.0,8665
1628.01,1.56133,315463.0,8662
1631.02,1.56494,305570.0,8321
1634.02,1.56834,295762.0,7991
1637.02,1.58061,286306.0,7520
1640.02,1.56897,276696.0,7465
1643.01,1.59299,267004.0,6816
1646,1.574189,257531.0,6865
1648.98,1.56252,247817.0,6786
1651.96,1.5974,238547.0,6028
1655.93,1.60309,225092.0,5614
1658.89,1.59792,214425.0,5412
1661.86,1.57027,202241.0,5440
1664.82,1.583448,188046.0,4907
1667.78,1.59385,171566.0,4371
1670.73,1.566941,154101.0,4177
1673.67,1.563313,134892.0,3687
1676.62,1.52764,115325.0,3422
1679.56,1.62149,97255.0,2325
1682.49,1.62937,81017.0,1902
1686.4,1.77145,63571.0,1076
1689.32,1.91066,53566.0,658
1692.24,1.70226,45493.0,903
1695.16,2.120718,39217.0,297
1698.07,2.13459,33537.0,246
1700.97,2.23627,29118.0,169