File: Data/PP/PP6_Column 1_20211230_112925.csv
***Scan Config Information***,,,,,,,***Reference Scan Information***,,,,,,,,
Scan Config Name:,Column 1,,,,,,Scan Config Name:,Built-in Factory Reference,,,,,,
Scan Config Type:,Slew,Num Section:,1,,,,Scan Config Type:,Slew,Num Section:,1,,,,,
Section Config Type:,Column,,,,,,Section Config Type:,Column,,,,,,,
Start Wavelength (nm):,900,,,,,,Start Wavelength (nm):,900.0,,,,,,
End Wavelength (nm):,1700,,,,,,End Wavelength (nm):,1700.0,,,,,,
Pattern Width (nm):,7.03,,,,,,Pattern Width (nm):,7.03,,,,,,,
Exposure (ms):,0.635,,,,,,Exposure (ms):,0.635,,,,,,,
Digital Resolution:,228,,,,,,Digital Resolution:,228,,,,,,,
Num Repeats:,6,,,,,,Num Repeats:,30,,,,,,,
PGA Gain:,64,,,,,,PGA Gain:,64,,,,,,
System Temp (C):,25.99,,,,,,System Temp (C):,24.17,,,,,,,
Humidity (%):,39.05,,,,,,Humidity (%):,30.0,,,,,,
Battery Capacity (%):,58,,,,,,Lamp Intensity:,2449,,,,,,,
Lamp Intensity:,2540,,,,,,Data Date-Time:,19/12/12T12:44:54,,,,,,
Data Date-Time:,18/1/1T7:8:44,,,,,,,,,,,,,,
Total Measurement Time in sec:,4.293,,,,,,,,,,,,,
***General Information***,,,,,,,***Calibration Coefficients***,,,,,,,,
Model Name:,NIR-S-G1,,,,,,Shift Vector Coefficients:,-8.44101,0.0554567,-8.45244e-05,,,,,
Serial Number:,947R055,95UB122GC0A947R055,,,,,Pixel to Wavelength Coefficients:,1795.87,-0.92014,-0.00023961,,,,,
APP Version:,2.16.7,,,,,,,,,,,,,
TIVA Version:,2.4.4,,,,,,***Lamp Usage * **,,,,,,,,
UUID:,de:67:c:88:67:2c:2d:21,,,,,,Total Time(HH:MM:SS):,13min 3sec ,,,,,,,
Main Board Version:,D,,,,,,***Device/Error Status***,,,,,,,,
Detector Board Version:,B,,,,,,Device Status:,0x00000031,,,,,,
,,,,,,,Error status:,0x00000000,Error Code:,0x00000000000000000000000000000000,,,,,
,,,,,,,,,Error Details:,Not Found,,,,,
***Scan Data***,,,,,,,,,,,,,,,
Wavelength (nm),Absorbance (AU),Reference Signal (unitless),Sample Signal (unitless)
901.841,1.3409,99968.0,4560
905.754,1.336349,108993.0,5024
909.663,1.36508,118185.0,5099
913.568,1.36282,129285.0,5607
917.469,1.317162,143347.0,6906
921.365,1.34437,160437.0,7260
925.257,1.34404,180387.0,8169
929.144,1.35317,201426.0,8932
933.028,1.34501,220694.0,9972
936.906,1.362491,237501.0,10308
942.072,1.35632,256956.0,11312
945.94,1.35143,270636.0,12049
949.805,1.3552,283621.0,12518
953.665,1.34362,296982.0,13462
957.521,1.35113,310733.0,13844
961.373,1.34042,324587.0,14822
965.22,1.35203,339205.0,15081
969.063,1.34337,353669.0,16041
972.902,1.353719,368253.0,16309
976.736,1.34952,382531.0,17106
981.842,1.34552,399901.0,18048
985.666,1.35192,411528.0,18301
989.486,1.35428,422199.0,18674
993.302,1.35353,431172.0,19104
997.113,1.35321,438051.0,19423
1000.92,1.35758,444216.0,19499
1004.72,1.36042,449307.0,19594
1008.52,1.36796,453601.0,19441
1012.32,1.36044,456801.0,19920
1016.11,1.36575,459312.0,19786
1021.15,1.37327,461643.0,19545
1024.93,1.36512,463069.0,19977
1028.71,1.361667,463868.0,20171
1032.48,1.36601,464326.0,19990
1036.24,1.37505,466001.0,19649
1040.01,1.36836,466870.0,19991
1043.77,1.36782,467033.0,20023
1047.52,1.37116,467045.0,19870
1051.27,1.36565,467467.0,20142
1055.01,1.37089,467627.0,19907
1060,1.36438,468351.0,20239
1063.74,1.36441,469050.0,20268
1067.47,1.37436,469880.0,19844
1071.19,1.377862,471228.0,19741
1074.92,1.37241,472558.0,20047
1078.63,1.36682,474087.0,20372
1082.35,1.3751,476569.0,20092
1086.06,1.37056,479445.0,20426
1089.76,1.36071,481756.0,20995
1093.46,1.36281,485147.0,21041
1098.39,1.37231,489755.0,20781
1102.08,1.37155,493535.0,20978
1105.77,1.37571,497426.0,20942
1109.45,1.37042,501308.0,21364
1113.13,1.37799,505725.0,21180
1116.8,1.37674,509421.0,21396
1120.47,1.37025,513217.0,21880
1124.13,1.37755,517470.0,21694
1127.79,1.37538,521690.0,21980
1131.45,1.38068,526099.0,21897
1136.32,1.380873,531329.0,22105
1139.96,1.38348,535549.0,22147
1143.61,1.3993,539808.0,21525
1147.24,1.39385,543900.0,21962
1150.88,1.40437,547908.0,21594
1154.5,1.41351,552170.0,21309
1158.13,1.41642,556773.0,21343
1161.75,1.41727,561098.0,21467
1165.36,1.4243,565898.0,21303
1168.98,1.44522,571300.0,20495
1172.58,1.43961,576602.0,20954
1177.39,1.4531,584320.0,20585
1180.98,1.46503,589396.0,20201
1184.58,1.48416,596143.0,19552
1188.16,1.48692,602955.0,19650
1191.75,1.50463,609704.0,19076
1195.33,1.51255,617215.0,18962
1198.9,1.50244,624471.0,19637
1202.48,1.50008,632472.0,19997
1206.04,1.486209,640381.0,20904
1209.61,1.49127,648161.0,20913
1214.35,1.49668,659999.0,21031
1217.9,1.49124,668609.0,21574
1221.45,1.4767,677405.0,22602
1224.99,1.46514,686281.0,23516
1228.53,1.45609,695317.0,24327
1232.07,1.44545,704063.0,25244
1235.6,1.43113,713007.0,26422
1239.13,1.42536,721330.0,27088
1242.65,1.41831,730030.0,27863
1246.17,1.41968,737591.0,28063
1250.85,1.40872,746809.0,29140
1254.36,1.40542,753336.0,29619
1257.86,1.4089,759907.0,29639
1261.36,1.3988,766538.0,30601
1264.86,1.4017,774802.0,30725
1268.35,1.39614,784025.0,31491
1271.83,1.397905,794336.0,31776
1275.32,1.39419,804198.0,32447
1278.79,1.40034,813836.0,32374
1282.27,1.39551,823595.0,33129
1286.89,1.39866,834533.0,33326
1290.36,1.398072,842581.0,33693
1293.81,1.39621,849301.0,34108
1297.27,1.39162,856026.0,34743
1300.72,1.39508,862498.0,34728
1304.17,1.39409,868068.0,35032
1307.61,1.39391,872869.0,35240
1311.05,1.39796,877616.0,35103
1314.48,1.3898,881872.0,35942
1317.91,1.3935,885520.0,35785
1322.47,1.39794,888917.0,35557
1325.89,1.39238,891687.0,36127
1329.31,1.3971,894001.0,35829
1332.72,1.39877,895438.0,35749
1336.12,1.39751,896641.0,35901
1339.52,1.39989,897974.0,35758
1342.92,1.39898,898777.0,35865
1346.31,1.40242,898783.0,35582
1349.7,1.40889,898350.0,35039
1353.09,1.4178,896784.0,34268
1357.59,1.42731,895293.0,33470
1360.97,1.43924,892755.0,32471
1364.34,1.45418,890430.0,31291
1367.7,1.45814,888504.0,30940
1371.06,1.46326,885825.0,30485
1374.42,1.47175,881046.0,29734
1377.77,1.47904,874030.0,29006
1381.12,1.49129,865751.0,27932
1384.47,1.49915,857799.0,27179
1387.81,1.5066,851759.0,26529
1392.25,1.50721,846500.0,26328
1395.58,1.51655,843622.0,25680
1398.91,1.514744,841228.0,25714
1402.23,1.51387,838489.0,25682
1405.55,1.50159,836065.0,26342
1408.86,1.49408,834396.0,26748
1412.17,1.49228,832187.0,26788
1415.47,1.49598,830123.0,26495
1418.77,1.48844,828244.0,26898
1422.07,1.483357,827314.0,27184
1426.45,1.48043,826435.0,27339
1429.74,1.48242,825475.0,27182
1433.02,1.48039,824938.0,27292
1436.29,1.47478,823959.0,27614
1439.57,1.47371,823822.0,27677
1442.83,1.47222,823184.0,27751
1446.1,1.47041,821953.0,27825
1449.36,1.46695,821135.0,28020
1452.61,1.47244,819413.0,27610
1455.86,1.46128,817492.0,28262
1459.11,1.46105,814862.0,28186
1463.43,1.45358,811075.0,28542
1466.67,1.45072,807671.0,28610
1469.9,1.45674,803699.0,28077
1473.13,1.45455,799396.0,28068
1476.35,1.45121,795129.0,28134
1479.57,1.44856,790127.0,28128
1482.78,1.44802,784937.0,27978
1486,1.44914,779544.0,27714
1489.2,1.44833,773733.0,27559
1492.4,1.4498,767463.0,27243
1496.67,1.44561,758614.0,27190
1499.86,1.44209,751802.0,27165
1503.04,1.4374,744297.0,27186
1506.23,1.43946,735980.0,26755
1509.41,1.43626,728040.0,26662
1512.58,1.42338,719703.0,27150
1515.75,1.43739,710982.0,25970
1518.92,1.42763,702409.0,26240
1522.08,1.42585,693280.0,26005
1525.24,1.42503,683935.0,25703
1529.44,1.43002,671492.0,24947
1532.59,1.42317,661352.0,24961
1535.73,1.43236,650841.0,24050
1538.87,1.42923,640156.0,23826
1542,1.42117,629036.0,23851
1545.13,1.42309,617445.0,23308
1548.26,1.42705,605527.0,22651
1551.38,1.42309,594133.0,22428
1554.49,1.42256,582894.0,22031
1557.61,1.42372,571271.0,21534
1561.75,1.42438,555940.0,20924
1564.85,1.42566,544812.0,20445
1567.95,1.42123,533402.0,20222
1571.05,1.42812,521915.0,19475
1574.14,1.44408,510788.0,18372
1577.22,1.42526,499607.0,18766
1580.3,1.42677,487992.0,18266
1583.38,1.43742,476265.0,17395
1586.45,1.44083,464618.0,16837
1589.52,1.44038,452782.0,16425
1593.6,1.45348,436897.0,15378
1596.66,1.43549,425551.0,15612
1599.71,1.43791,414191.0,15111
1602.76,1.44645,402799.0,14409
1605.81,1.43617,391352.0,14335
1608.85,1.44427,380811.0,13691
1611.89,1.45228,370076.0,13062
1614.92,1.44919,359798.0,12790
1617.95,1.44786,349165.0,12450
1620.97,1.45236,338717.0,11953
1624.99,1.46236,325435.0,11223
1628.01,1.44803,315463.0,11244
1631.02,1.47388,305570.0,10262
1634.02,1.46934,295762.0,10037
1637.02,1.48209,286306.0,9435
1640.02,1.47282,276696.0,9315
1643.01,1.46439,267004.0,9165
1646,1.49238,257531.0,8288
1648.98,1.47437,247817.0,8313
1651.96,1.48392,238547.0,7828
1655.93,1.464574,225092.0,7723
1658.89,1.48272,214425.0,7056
1661.86,1.46445,202241.0,6941
1664.82,1.46626,188046.0,6427
1667.78,1.47917,171566.0,5692
1670.73,1.44422,154101.0,5541
1673.67,1.44407,134892.0,4852
1676.62,1.44419,115325.0,4147
1679.56,1.44658,97255.0,3478
1682.49,1.47353,81017.0,2723
1686.4,1.49619,63571.0,2028
1689.32,1.69106,53566.0,1091
1692.24,1.52473,45493.0,1359
1695.16,1.62266,39217.0,935
1698.07,1.87912,33537.0,443
1700.97,1.89129,29118.0,374