File: Data/PP/PP8_Column 1_20211230_112954.csv
***Scan Config Information***,,,,,,,***Reference Scan Information***,,,,,,,,
Scan Config Name:,Column 1,,,,,,Scan Config Name:,Built-in Factory Reference,,,,,,
Scan Config Type:,Slew,Num Section:,1,,,,Scan Config Type:,Slew,Num Section:,1,,,,,
Section Config Type:,Column,,,,,,Section Config Type:,Column,,,,,,,
Start Wavelength (nm):,900,,,,,,Start Wavelength (nm):,900.0,,,,,,
End Wavelength (nm):,1700,,,,,,End Wavelength (nm):,1700.0,,,,,,
Pattern Width (nm):,7.03,,,,,,Pattern Width (nm):,7.03,,,,,,,
Exposure (ms):,0.635,,,,,,Exposure (ms):,0.635,,,,,,,
Digital Resolution:,228,,,,,,Digital Resolution:,228,,,,,,,
Num Repeats:,6,,,,,,Num Repeats:,30,,,,,,,
PGA Gain:,64,,,,,,PGA Gain:,64,,,,,,
System Temp (C):,26.33,,,,,,System Temp (C):,24.17,,,,,,,
Humidity (%):,38.94,,,,,,Humidity (%):,30.0,,,,,,
Battery Capacity (%):,57,,,,,,Lamp Intensity:,2449,,,,,,,
Lamp Intensity:,2545,,,,,,Data Date-Time:,19/12/12T12:44:54,,,,,,
Data Date-Time:,18/1/1T7:9:12,,,,,,,,,,,,,,
Total Measurement Time in sec:,5.287,,,,,,,,,,,,,
***General Information***,,,,,,,***Calibration Coefficients***,,,,,,,,
Model Name:,NIR-S-G1,,,,,,Shift Vector Coefficients:,-8.44101,0.0554567,-8.45244e-05,,,,,
Serial Number:,947R055,95UB122GC0A947R055,,,,,Pixel to Wavelength Coefficients:,1795.87,-0.92014,-0.00023961,,,,,
APP Version:,2.16.7,,,,,,,,,,,,,
TIVA Version:,2.4.4,,,,,,***Lamp Usage * **,,,,,,,,
UUID:,de:67:c:88:67:2c:2d:21,,,,,,Total Time(HH:MM:SS):,13min 7sec ,,,,,,,
Main Board Version:,D,,,,,,***Device/Error Status***,,,,,,,,
Detector Board Version:,B,,,,,,Device Status:,0x00000031,,,,,,
,,,,,,,Error status:,0x00000000,Error Code:,0x00000000000000000000000000000000,,,,,
,,,,,,,,,Error Details:,Not Found,,,,,
***Scan Data***,,,,,,,,,,,,,,,
Wavelength (nm),Absorbance (AU),Reference Signal (unitless),Sample Signal (unitless)
901.841,1.549,99968.0,2824
905.754,1.50261,108993.0,3426
909.663,1.51759,118185.0,3589
913.568,1.48326,129285.0,4249
917.469,1.47415,143347.0,4811
921.365,1.53422,160437.0,4689
925.257,1.50393,180387.0,5653
929.144,1.52452,201426.0,6020
933.028,1.52333,220694.0,6614
936.906,1.4991,237501.0,7526
942.072,1.51782,256956.0,7799
945.94,1.509712,270636.0,8369
949.805,1.50594,283621.0,8847
953.665,1.5028,296982.0,9331
957.521,1.49109,310733.0,10030
961.373,1.48693,324587.0,10578
965.22,1.49339,339205.0,10891
969.063,1.48268,353669.0,11639
972.902,1.49305,368253.0,11833
976.736,1.505626,382531.0,11941
981.842,1.48985,399901.0,12945
985.666,1.50587,411528.0,12839
989.486,1.50036,422199.0,13340
993.302,1.4966,431172.0,13742
997.113,1.50582,438051.0,13668
1000.92,1.499115,444216.0,14076
1004.72,1.50567,449307.0,14024
1008.52,1.49934,453601.0,14366
1012.32,1.50677,456801.0,14222
1016.11,1.52013,459312.0,13867
1021.15,1.51049,461643.0,14250
1024.93,1.50988,463069.0,14314
1028.71,1.50121,463868.0,14628
1032.48,1.49615,464326.0,14814
1036.24,1.50729,466001.0,14491
1040.01,1.497411,466870.0,14852
1043.77,1.50238,467033.0,14688
1047.52,1.51317,467045.0,14328
1051.27,1.5032,467467.0,14674
1055.01,1.51563,467627.0,14265
1060,1.498,468351.0,14879
1063.74,1.51704,469050.0,14262
1067.47,1.51056,469880.0,14502
1071.19,1.5124,471228.0,14482
1074.92,1.51839,472558.0,14324
1078.63,1.52016,474087.0,14312
1082.35,1.51676,476569.0,14500
1086.06,1.51327,479445.0,14705
1089.76,1.5072,481756.0,14984
1093.46,1.51019,485147.0,14986
1098.39,1.52066,489755.0,14768
1102.08,1.50761,493535.0,15336
1105.77,1.521913,497426.0,14956
1109.45,1.50896,501308.0,15529
1113.13,1.51518,505725.0,15443
1116.8,1.517362,509421.0,15478
1120.47,1.51765,513217.0,15583
1124.13,1.519704,517470.0,15638
1127.79,1.52426,521690.0,15601
1131.45,1.52266,526099.0,15791
1136.32,1.5345,531329.0,15519
1139.96,1.54275,535549.0,15348
1143.61,1.53881,539808.0,15611
1147.24,1.55402,543900.0,15188
1150.88,1.544971,547908.0,15622
1154.5,1.55772,552170.0,15288
1158.13,1.563806,556773.0,15201
1161.75,1.56794,561098.0,15174
1165.36,1.559224,565898.0,15614
1168.98,1.57144,571300.0,15326
1172.58,1.57077,576602.0,15492
1177.39,1.59892,584320.0,14714
1180.98,1.59594,589396.0,14944
1184.58,1.61225,596143.0,14558
1188.16,1.61988,602955.0,14468
1191.75,1.62887,609704.0,14330
1195.33,1.6325,617215.0,14386
1198.9,1.63456,624471.0,14486
1202.48,1.62567,632472.0,14975
1206.04,1.6327,640381.0,14919
1209.61,1.64419,648161.0,14706
1214.35,1.62489,659999.0,15655
1217.9,1.62383,668609.0,15898
1221.45,1.61386,677405.0,16481
1224.99,1.60795,686281.0,16926
1228.53,1.59977,695317.0,17475
1232.07,1.58011,704063.0,18514
1235.6,1.57391,713007.0,19019
1239.13,1.568144,721330.0,19498
1242.65,1.55747,730030.0,20224
1246.17,1.54971,737591.0,20802
1250.85,1.55745,746809.0,20690
1254.36,1.557175,753336.0,20884
1257.86,1.55361,759907.0,21240
1261.36,1.54544,766538.0,21832
1264.86,1.552731,774802.0,21700
1268.35,1.54484,784025.0,22361
1271.83,1.5445,794336.0,22673
1275.32,1.53745,804198.0,23330
1278.79,1.54627,813836.0,23135
1282.27,1.53925,823595.0,23794
1286.89,1.54465,834533.0,23812
1290.36,1.54151,842581.0,24216
1293.81,1.539736,849301.0,24509
1297.27,1.54245,856026.0,24549
1300.72,1.543026,862498.0,24702
1304.17,1.542843,868068.0,24872
1307.61,1.5473,872869.0,24754
1311.05,1.54524,877616.0,25007
1314.48,1.5421,881872.0,25311
1317.91,1.54587,885520.0,25196
1322.47,1.54801,888917.0,25168
1325.89,1.54671,891687.0,25322
1329.31,1.54125,894001.0,25709
1332.72,1.535395,895438.0,26100
1336.12,1.53796,896641.0,25981
1339.52,1.551,897974.0,25250
1342.92,1.54401,898777.0,25683
1346.31,1.54557,898783.0,25591
1349.7,1.55103,898350.0,25259
1353.09,1.56106,896784.0,24639
1357.59,1.56811,895293.0,24202
1360.97,1.5799,892755.0,23487
1364.34,1.58546,890430.0,23128
1367.7,1.58285,888504.0,23217
1371.06,1.59213,885825.0,22658
1374.42,1.60212,881046.0,22023
1377.77,1.60287,874030.0,21810
1381.12,1.61511,865751.0,21003
1384.47,1.61979,857799.0,20587
1387.81,1.62107,851759.0,20382
1392.25,1.6298,846500.0,19853
1395.58,1.63625,843622.0,19494
1398.91,1.63352,841228.0,19561
1402.23,1.62091,838489.0,20072
1405.55,1.62078,836065.0,20020
1408.86,1.62872,834396.0,19618
1412.17,1.62017,832187.0,19955
1415.47,1.603277,830123.0,20695
1418.77,1.61195,828244.0,20240
1422.07,1.60342,827314.0,20618
1426.45,1.60916,826435.0,20326
1429.74,1.61535,825475.0,20015
1433.02,1.60024,824938.0,20710
1436.29,1.603284,823959.0,20541
1439.57,1.6078,823822.0,20325
1442.83,1.593857,823184.0,20972
1446.1,1.59232,821953.0,21015
1449.36,1.59595,821135.0,20819
1452.61,1.59077,819413.0,21025
1455.86,1.59142,817492.0,20944
1459.11,1.58773,814862.0,21055
1463.43,1.57883,811075.0,21391
1466.67,1.58143,807671.0,21174
1469.9,1.5782,803699.0,21227
1473.13,1.5779,799396.0,21128
1476.35,1.570999,795129.0,21352
1479.57,1.56552,790127.0,21487
1482.78,1.56586,784937.0,21329
1486,1.57097,779544.0,20935
1489.2,1.57688,773733.0,20498
1492.4,1.56789,767463.0,20757
1496.67,1.56198,758614.0,20799
1499.86,1.56792,751802.0,20332
1503.04,1.56154,744297.0,20427
1506.23,1.55711,735980.0,20406
1509.41,1.55879,728040.0,20108
1512.58,1.55678,719703.0,19970
1515.75,1.56567,710982.0,19328
1518.92,1.55347,702409.0,19639
1522.08,1.5447,693280.0,19779
1525.24,1.55542,683935.0,19037
1529.44,1.54412,671492.0,19183
1532.59,1.54305,661352.0,18940
1535.73,1.5441,650841.0,18594
1538.87,1.54315,640156.0,18329
1542,1.54701,629036.0,17851
1545.13,1.54965,617445.0,17416
1548.26,1.53954,605527.0,17482
1551.38,1.53458,594133.0,17350
1554.49,1.546608,582894.0,16557
1557.61,1.53621,571271.0,16620
1561.75,1.54352,555940.0,15904
1564.85,1.55227,544812.0,15275
1567.95,1.54157,533402.0,15328
1571.05,1.53644,521915.0,15176
1574.14,1.54273,510788.0,14639
1577.22,1.54481,499607.0,14250
1580.3,1.54247,487992.0,13994
1583.38,1.53462,476265.0,13907
1586.45,1.54531,464618.0,13237
1589.52,1.531059,452782.0,13330
1593.6,1.53511,436897.0,12743
1596.66,1.54089,425551.0,12248
1599.71,1.54775,414191.0,11734
1602.76,1.55875,402799.0,11126
1605.81,1.54401,391352.0,11183
1608.85,1.53928,380811.0,11001
1611.89,1.5337,370076.0,10829
1614.92,1.54402,359798.0,10281
1617.95,1.537507,349165.0,10128
1620.97,1.54549,338717.0,9646
1624.99,1.57011,325435.0,8757
1628.01,1.55526,315463.0,8784
1631.02,1.558,305570.0,8455
1634.02,1.536646,295762.0,8596
1637.02,1.53095,286306.0,8431
1640.02,1.55158,276696.0,7770
1643.01,1.57938,267004.0,7033
1646,1.53885,257531.0,7447
1648.98,1.57001,247817.0,6670
1651.96,1.55189,238547.0,6694
1655.93,1.56789,225092.0,6088
1658.89,1.56168,214425.0,5883
1661.86,1.54072,202241.0,5823
1664.82,1.56934,188046.0,5069
1667.78,1.52474,171566.0,5125
1670.73,1.52194,154101.0,4633
1673.67,1.50037,134892.0,4262
1676.62,1.52473,115325.0,3445
1679.56,1.55382,97255.0,2717
1682.49,1.55466,81017.0,2259
1686.4,1.56396,63571.0,1735
1689.32,1.58214,53566.0,1402
1692.24,1.62816,45493.0,1071
1695.16,1.88847,39217.0,507
1698.07,1.71731,33537.0,643
1700.97,1.97986,29118.0,305