File: Data/HDPE/HDPE10_Column 1_20211229_164253.csv
***Scan Config Information***,,,,,,,***Reference Scan Information***,,,,,,,,
Scan Config Name:,Column 1,,,,,,Scan Config Name:,Built-in Factory Reference,,,,,,
Scan Config Type:,Slew,Num Section:,1,,,,Scan Config Type:,Slew,Num Section:,1,,,,,
Section Config Type:,Column,,,,,,Section Config Type:,Column,,,,,,,
Start Wavelength (nm):,900,,,,,,Start Wavelength (nm):,900.0,,,,,,
End Wavelength (nm):,1700,,,,,,End Wavelength (nm):,1700.0,,,,,,
Pattern Width (nm):,7.03,,,,,,Pattern Width (nm):,7.03,,,,,,,
Exposure (ms):,0.635,,,,,,Exposure (ms):,0.635,,,,,,,
Digital Resolution:,228,,,,,,Digital Resolution:,228,,,,,,,
Num Repeats:,6,,,,,,Num Repeats:,30,,,,,,,
PGA Gain:,64,,,,,,PGA Gain:,64,,,,,,
System Temp (C):,26.82,,,,,,System Temp (C):,24.17,,,,,,,
Humidity (%):,37.31,,,,,,Humidity (%):,30.0,,,,,,
Battery Capacity (%):,74,,,,,,Lamp Intensity:,2449,,,,,,,
Lamp Intensity:,2547,,,,,,Data Date-Time:,19/12/12T12:44:54,,,,,,
Data Date-Time:,18/1/1T7:12:10,,,,,,,,,,,,,,
Total Measurement Time in sec:,5.206,,,,,,,,,,,,,
***General Information***,,,,,,,***Calibration Coefficients***,,,,,,,,
Model Name:,NIR-S-G1,,,,,,Shift Vector Coefficients:,-8.44101,0.0554567,-8.45244e-05,,,,,
Serial Number:,947R055,95UB122GC0A947R055,,,,,Pixel to Wavelength Coefficients:,1795.87,-0.92014,-0.00023961,,,,,
APP Version:,2.16.7,,,,,,,,,,,,,
TIVA Version:,2.4.4,,,,,,***Lamp Usage * **,,,,,,,,
UUID:,de:67:c:88:67:2c:2d:21,,,,,,Total Time(HH:MM:SS):,11min 44sec ,,,,,,,
Main Board Version:,D,,,,,,***Device/Error Status***,,,,,,,,
Detector Board Version:,B,,,,,,Device Status:,0x00000031,,,,,,
,,,,,,,Error status:,0x00000000,Error Code:,0x00000000000000000000000000000000,,,,,
,,,,,,,,,Error Details:,Not Found,,,,,
***Scan Data***,,,,,,,,,,,,,,,
Wavelength (nm),Absorbance (AU),Reference Signal (unitless),Sample Signal (unitless)
901.841,1.54395,99968.0,2857
905.754,1.561437,108993.0,2992
909.663,1.58727,118185.0,3057
913.568,1.55537,129285.0,3599
917.469,1.5453,143347.0,4084
921.365,1.609698,160437.0,3941
925.257,1.60921,180387.0,4436
929.144,1.61048,201426.0,4939
933.028,1.59903,220694.0,5556
936.906,1.58426,237501.0,6186
942.072,1.59976,256956.0,6458
945.94,1.58716,270636.0,7002
949.805,1.56523,283621.0,7718
953.665,1.56083,296982.0,8164
957.521,1.56656,310733.0,8430
961.373,1.570118,324587.0,8734
965.22,1.57927,339205.0,8937
969.063,1.59185,353669.0,9052
972.902,1.575763,368253.0,9781
976.736,1.5831,382531.0,9990
981.842,1.5676,399901.0,10823
985.666,1.59967,411528.0,10345
989.486,1.5714,422199.0,11327
993.302,1.59133,431172.0,11049
997.113,1.59324,438051.0,11176
1000.92,1.59606,444216.0,11260
1004.72,1.59652,449307.0,11377
1008.52,1.58358,453601.0,11833
1012.32,1.5943,456801.0,11626
1016.11,1.6041,459312.0,11429
1021.15,1.59213,461643.0,11808
1024.93,1.59958,463069.0,11643
1028.71,1.59776,463868.0,11712
1032.48,1.61386,464326.0,11297
1036.24,1.62209,466001.0,11125
1040.01,1.61677,466870.0,11283
1043.77,1.605339,467033.0,11588
1047.52,1.63161,467045.0,10908
1051.27,1.623568,467467.0,11122
1055.01,1.61863,467627.0,11253
1060,1.6291,468351.0,11002
1063.74,1.62053,469050.0,11238
1067.47,1.63408,469880.0,10912
1071.19,1.62417,471228.0,11196
1074.92,1.60895,472558.0,11628
1078.63,1.6244,474087.0,11258
1082.35,1.642696,476569.0,10850
1086.06,1.640453,479445.0,10972
1089.76,1.63571,481756.0,11146
1093.46,1.63926,485147.0,11133
1098.39,1.63594,489755.0,11325
1102.08,1.63947,493535.0,11320
1105.77,1.61929,497426.0,11952
1109.45,1.6493,501308.0,11241
1113.13,1.6389,505725.0,11615
1116.8,1.63733,509421.0,11742
1120.47,1.65842,513217.0,11269
1124.13,1.65406,517470.0,11477
1127.79,1.65419,521690.0,11567
1131.45,1.64475,526099.0,11921
1136.32,1.67448,531329.0,11243
1139.96,1.67661,535549.0,11277
1143.61,1.661832,539808.0,11760
1147.24,1.68121,543900.0,11332
1150.88,1.68241,547908.0,11384
1154.5,1.68277,552170.0,11463
1158.13,1.707058,556773.0,10930
1161.75,1.70473,561098.0,11074
1165.36,1.72056,565898.0,10769
1168.98,1.712952,571300.0,11064
1172.58,1.746986,576602.0,10325
1177.39,1.755588,584320.0,10258
1180.98,1.75241,589396.0,10423
1184.58,1.7703,596143.0,10117
1188.16,1.788085,602955.0,9822
1191.75,1.80794,609704.0,9488
1195.33,1.79652,617215.0,9861
1198.9,1.80923,624471.0,9689
1202.48,1.85814,632472.0,8768
1206.04,1.87098,640381.0,8619
1209.61,1.873764,648161.0,8668
1214.35,1.90462,659999.0,8221
1217.9,1.8863,668609.0,8687
1221.45,1.88696,677405.0,8788
1224.99,1.83012,686281.0,10148
1228.53,1.8017,695317.0,10977
1232.07,1.808,704063.0,10955
1235.6,1.78239,713007.0,11768
1239.13,1.77521,721330.0,12104
1242.65,1.76087,730030.0,12661
1246.17,1.73887,737591.0,13457
1250.85,1.73302,746809.0,13810
1254.36,1.72415,753336.0,14218
1257.86,1.73597,759907.0,13957
1261.36,1.73547,766538.0,14095
1264.86,1.725314,774802.0,14584
1268.35,1.71934,784025.0,14962
1271.83,1.71313,794336.0,15377
1275.32,1.7091,804198.0,15713
1278.79,1.70876,813836.0,15914
1282.27,1.71692,823595.0,15805
1286.89,1.71958,834533.0,15917
1290.36,1.71529,842581.0,16230
1293.81,1.71629,849301.0,16322
1297.27,1.70785,856026.0,16774
1300.72,1.72205,862498.0,16357
1304.17,1.712986,868068.0,16810
1307.61,1.70879,872869.0,17067
1311.05,1.71056,877616.0,17090
1314.48,1.71373,881872.0,17048
1317.91,1.71655,885520.0,17008
1322.47,1.71333,888917.0,17200
1325.89,1.71951,891687.0,17010
1329.31,1.71216,894001.0,17345
1332.72,1.703033,895438.0,17742
1336.12,1.714899,896641.0,17287
1339.52,1.721183,897974.0,17064
1342.92,1.71395,898777.0,17366
1346.31,1.71785,898783.0,17211
1349.7,1.72022,898350.0,17109
1353.09,1.72932,896784.0,16725
1357.59,1.70838,895293.0,17522
1360.97,1.728953,892755.0,16664
1364.34,1.73415,890430.0,16423
1367.7,1.75108,888504.0,15761
1371.06,1.73842,885825.0,16178
1374.42,1.75517,881046.0,15482
1377.77,1.75763,874030.0,15272
1381.12,1.78212,865751.0,14298
1384.47,1.79351,857799.0,13800
1387.81,1.81404,851759.0,13070
1392.25,1.8661,846500.0,11522
1395.58,1.84675,843622.0,12006
1398.91,1.83002,841228.0,12442
1402.23,1.82213,838489.0,12629
1405.55,1.82637,836065.0,12470
1408.86,1.81949,834396.0,12644
1412.17,1.83769,832187.0,12093
1415.47,1.855659,830123.0,11574
1418.77,1.85105,828244.0,11671
1422.07,1.86993,827314.0,11162
1426.45,1.85474,826435.0,11547
1429.74,1.84119,825475.0,11899
1433.02,1.83989,824938.0,11927
1436.29,1.84687,823959.0,11723
1439.57,1.82653,823822.0,12283
1442.83,1.83606,823184.0,12007
1446.1,1.8236,821953.0,12338
1449.36,1.81848,821135.0,12472
1452.61,1.81725,819413.0,12481
1455.86,1.83537,817492.0,11943
1459.11,1.81875,814862.0,12369
1463.43,1.81319,811075.0,12470
1466.67,1.79668,807671.0,12899
1469.9,1.79329,803699.0,12936
1473.13,1.79009,799396.0,12962
1476.35,1.7876,795129.0,12967
1479.57,1.78199,790127.0,13053
1482.78,1.78146,784937.0,12983
1486,1.79257,779544.0,12568
1489.2,1.77248,773733.0,13065
1492.4,1.7804,767463.0,12725
1496.67,1.77574,758614.0,12714
1499.86,1.78086,751802.0,12452
1503.04,1.78092,744297.0,12326
1506.23,1.78333,735980.0,12121
1509.41,1.77711,728040.0,12163
1512.58,1.76538,719703.0,12353
1515.75,1.76936,710982.0,12092
1518.92,1.77574,702409.0,11772
1522.08,1.78161,693280.0,11463
1525.24,1.76365,683935.0,11786
1529.44,1.77113,671492.0,11374
1532.59,1.77904,661352.0,11000
1535.73,1.77291,650841.0,10979
1538.87,1.775322,640156.0,10739
1542,1.78273,629036.0,10374
1545.13,1.76411,617445.0,10629
1548.26,1.76477,605527.0,10408
1551.38,1.76665,594133.0,10168
1554.49,1.7722,582894.0,9849
1557.61,1.76116,571271.0,9901
1561.75,1.74786,555940.0,9935
1564.85,1.77048,544812.0,9242
1567.95,1.76341,533402.0,9197
1571.05,1.765098,521915.0,8964
1574.14,1.75812,510788.0,8915
1577.22,1.75218,499607.0,8840
1580.3,1.75701,487992.0,8539
1583.38,1.7428,476265.0,8611
1586.45,1.75642,464618.0,8141
1589.52,1.73457,452782.0,8343
1593.6,1.75803,436897.0,7627
1596.66,1.74768,425551.0,7608
1599.71,1.77055,414191.0,7025
1602.76,1.75512,402799.0,7079
1605.81,1.741248,391352.0,7101
1608.85,1.73991,380811.0,6931
1611.89,1.76916,370076.0,6297
1614.92,1.76276,359798.0,6213
1617.95,1.74238,349165.0,6319
1620.97,1.74117,338717.0,6147
1624.99,1.734965,325435.0,5991
1628.01,1.73417,315463.0,5818
1631.02,1.77771,305570.0,5098
1634.02,1.74773,295762.0,5287
1637.02,1.77895,286306.0,4763
1640.02,1.769351,276696.0,4706
1643.01,1.7735,267004.0,4498
1646,1.76945,257531.0,4379
1648.98,1.775351,247817.0,4157
1651.96,1.79336,238547.0,3839
1655.93,1.770183,225092.0,3821
1658.89,1.735669,214425.0,3941
1661.86,1.75822,202241.0,3529
1664.82,1.804,188046.0,2953
1667.78,1.71277,171566.0,3324
1670.73,1.76868,154101.0,2625
1673.67,1.69382,134892.0,2730
1676.62,1.67293,115325.0,2449
1679.56,1.67152,97255.0,2072
1682.49,1.76619,81017.0,1388
1686.4,1.67973,63571.0,1329
1689.32,1.6461,53566.0,1210
1692.24,1.71793,45493.0,871
1695.16,1.65196,39217.0,874
1698.07,1.59713,33537.0,848
1700.97,2.15881,29118.0,202