File: Data/HDPE/HDPE3_Column 1_20211229_164110.csv
***Scan Config Information***,,,,,,,***Reference Scan Information***,,,,,,,,
Scan Config Name:,Column 1,,,,,,Scan Config Name:,Built-in Factory Reference,,,,,,
Scan Config Type:,Slew,Num Section:,1,,,,Scan Config Type:,Slew,Num Section:,1,,,,,
Section Config Type:,Column,,,,,,Section Config Type:,Column,,,,,,,
Start Wavelength (nm):,900,,,,,,Start Wavelength (nm):,900.0,,,,,,
End Wavelength (nm):,1700,,,,,,End Wavelength (nm):,1700.0,,,,,,
Pattern Width (nm):,7.03,,,,,,Pattern Width (nm):,7.03,,,,,,,
Exposure (ms):,0.635,,,,,,Exposure (ms):,0.635,,,,,,,
Digital Resolution:,228,,,,,,Digital Resolution:,228,,,,,,,
Num Repeats:,6,,,,,,Num Repeats:,30,,,,,,,
PGA Gain:,64,,,,,,PGA Gain:,64,,,,,,
System Temp (C):,25.5,,,,,,System Temp (C):,24.17,,,,,,,
Humidity (%):,36.21,,,,,,Humidity (%):,30.0,,,,,,
Battery Capacity (%):,75,,,,,,Lamp Intensity:,2449,,,,,,,
Lamp Intensity:,2522,,,,,,Data Date-Time:,19/12/12T12:44:54,,,,,,
Data Date-Time:,18/1/1T7:10:31,,,,,,,,,,,,,,
Total Measurement Time in sec:,4.262,,,,,,,,,,,,,
***General Information***,,,,,,,***Calibration Coefficients***,,,,,,,,
Model Name:,NIR-S-G1,,,,,,Shift Vector Coefficients:,-8.44101,0.0554567,-8.45244e-05,,,,,
Serial Number:,947R055,95UB122GC0A947R055,,,,,Pixel to Wavelength Coefficients:,1795.87,-0.92014,-0.00023961,,,,,
APP Version:,2.16.7,,,,,,,,,,,,,
TIVA Version:,2.4.4,,,,,,***Lamp Usage * **,,,,,,,,
UUID:,de:67:c:88:67:2c:2d:21,,,,,,Total Time(HH:MM:SS):,11min 28sec ,,,,,,,
Main Board Version:,D,,,,,,***Device/Error Status***,,,,,,,,
Detector Board Version:,B,,,,,,Device Status:,0x00000031,,,,,,
,,,,,,,Error status:,0x00000000,Error Code:,0x00000000000000000000000000000000,,,,,
,,,,,,,,,Error Details:,Not Found,,,,,
***Scan Data***,,,,,,,,,,,,,,,
Wavelength (nm),Absorbance (AU),Reference Signal (unitless),Sample Signal (unitless)
901.841,1.57368,99968.0,2668
905.754,1.56187,108993.0,2989
909.663,1.56417,118185.0,3224
913.568,1.54511,129285.0,3685
917.469,1.62709,143347.0,3383
921.365,1.59507,160437.0,4076
925.257,1.62425,180387.0,4285
929.144,1.60005,201426.0,5059
933.028,1.606121,220694.0,5466
936.906,1.61827,237501.0,5720
942.072,1.59936,256956.0,6464
945.94,1.58125,270636.0,7098
949.805,1.58562,283621.0,7364
953.665,1.58147,296982.0,7785
957.521,1.58908,310733.0,8004
961.373,1.58674,324587.0,8406
965.22,1.57579,339205.0,9009
969.063,1.588031,353669.0,9132
972.902,1.57906,368253.0,9707
976.736,1.58267,382531.0,10000
981.842,1.58342,399901.0,10436
985.666,1.57159,411528.0,11036
989.486,1.59033,422199.0,10844
993.302,1.57756,431172.0,11405
997.113,1.59111,438051.0,11231
1000.92,1.589586,444216.0,11429
1004.72,1.59839,449307.0,11328
1008.52,1.604596,453601.0,11274
1012.32,1.59794,456801.0,11529
1016.11,1.60964,459312.0,11284
1021.15,1.60361,461643.0,11500
1024.93,1.60246,463069.0,11566
1028.71,1.61671,463868.0,11212
1032.48,1.61409,464326.0,11291
1036.24,1.621,466001.0,11153
1040.01,1.62118,466870.0,11169
1043.77,1.62301,467033.0,11126
1047.52,1.62955,467045.0,10960
1051.27,1.64232,467467.0,10652
1055.01,1.62973,467627.0,10969
1060,1.66108,468351.0,10221
1063.74,1.63296,469050.0,10921
1067.47,1.63337,469880.0,10930
1071.19,1.62658,471228.0,11134
1074.92,1.64809,472558.0,10626
1078.63,1.62699,474087.0,11191
1082.35,1.63768,476569.0,10976
1086.06,1.63789,479445.0,11037
1089.76,1.65953,481756.0,10551
1093.46,1.65926,485147.0,10632
1098.39,1.6508,489755.0,10944
1102.08,1.6371,493535.0,11382
1105.77,1.65467,497426.0,11017
1109.45,1.6421,501308.0,11429
1113.13,1.6591,505725.0,11087
1116.8,1.653499,509421.0,11313
1120.47,1.66568,513217.0,11082
1124.13,1.66208,517470.0,11267
1127.79,1.65232,521690.0,11617
1131.45,1.66336,526099.0,11421
1136.32,1.65744,531329.0,11693
1139.96,1.67285,535549.0,11375
1143.61,1.66228,539808.0,11748
1147.24,1.69216,543900.0,11050
1150.88,1.69163,547908.0,11145
1154.5,1.70238,552170.0,10957
1158.13,1.71407,556773.0,10755
1161.75,1.73385,561098.0,10356
1165.36,1.74363,565898.0,10212
1168.98,1.76741,571300.0,9760
1172.58,1.75462,576602.0,10145
1177.39,1.76717,584320.0,9988
1180.98,1.78615,589396.0,9644
1184.58,1.77936,596143.0,9908
1188.16,1.78791,602955.0,9826
1191.75,1.82484,609704.0,9126
1195.33,1.82944,617215.0,9141
1198.9,1.8537,624471.0,8746
1202.48,1.867,632472.0,8591
1206.04,1.87779,640381.0,8485
1209.61,1.92802,648161.0,7650
1214.35,1.91743,659999.0,7982
1217.9,1.90281,668609.0,8363
1221.45,1.90554,677405.0,8420
1224.99,1.872903,686281.0,9196
1228.53,1.85331,695317.0,9747
1232.07,1.82771,704063.0,10469
1235.6,1.80633,713007.0,11137
1239.13,1.78412,721330.0,11858
1242.65,1.791238,730030.0,11806
1246.17,1.77383,737591.0,12416
1250.85,1.74714,746809.0,13368
1254.36,1.75053,753336.0,13380
1257.86,1.74337,759907.0,13721
1261.36,1.74629,766538.0,13748
1264.86,1.7531,774802.0,13680
1268.35,1.721,784025.0,14905
1271.83,1.73756,794336.0,14536
1275.32,1.7455,804198.0,14450
1278.79,1.72761,813836.0,15238
1282.27,1.74244,823595.0,14903
1286.89,1.74666,834533.0,14955
1290.36,1.73871,842581.0,15378
1293.81,1.73266,849301.0,15718
1297.27,1.73123,856026.0,15895
1300.72,1.734006,862498.0,15913
1304.17,1.72966,868068.0,16177
1307.61,1.74248,872869.0,15793
1311.05,1.72883,877616.0,16386
1314.48,1.72874,881872.0,16469
1317.91,1.73533,885520.0,16288
1322.47,1.73854,888917.0,16230
1325.89,1.736615,891687.0,16353
1329.31,1.73079,894001.0,16617
1332.72,1.73547,895438.0,16465
1336.12,1.73809,896641.0,16388
1339.52,1.73475,897974.0,16539
1342.92,1.73496,898777.0,16546
1346.31,1.73211,898783.0,16655
1349.7,1.74142,898350.0,16294
1353.09,1.74371,896784.0,16180
1357.59,1.74484,895293.0,16111
1360.97,1.73706,892755.0,16356
1364.34,1.75127,890430.0,15788
1367.7,1.76796,888504.0,15160
1371.06,1.75949,885825.0,15412
1374.42,1.77135,881046.0,14916
1377.77,1.79123,874030.0,14135
1381.12,1.80258,865751.0,13640
1384.47,1.80177,857799.0,13540
1387.81,1.86039,851759.0,11747
1392.25,1.86723,846500.0,11492
1395.58,1.86349,843622.0,11552
1398.91,1.86391,841228.0,11508
1402.23,1.84046,838489.0,12107
1405.55,1.85898,836065.0,11568
1408.86,1.85389,834396.0,11681
1412.17,1.88295,832187.0,10896
1415.47,1.87637,830123.0,11035
1418.77,1.877556,828244.0,10980
1422.07,1.89438,827314.0,10551
1426.45,1.87665,826435.0,10979
1429.74,1.88103,825475.0,10856
1433.02,1.87975,824938.0,10881
1436.29,1.88056,823959.0,10848
1439.57,1.87122,823822.0,11082
1442.83,1.848575,823184.0,11666
1446.1,1.85223,821953.0,11551
1449.36,1.8396,821135.0,11880
1452.61,1.85032,819413.0,11566
1455.86,1.83679,817492.0,11904
1459.11,1.83674,814862.0,11867
1463.43,1.84678,811075.0,11542
1466.67,1.84046,807671.0,11662
1469.9,1.82504,803699.0,12024
1473.13,1.82203,799396.0,12043
1476.35,1.81337,795129.0,12220
1479.57,1.81409,790127.0,12123
1482.78,1.81396,784937.0,12047
1486,1.80784,779544.0,12134
1489.2,1.80241,773733.0,12195
1492.4,1.80638,767463.0,11986
1496.67,1.78927,758614.0,12324
1499.86,1.80784,751802.0,11702
1503.04,1.79635,744297.0,11896
1506.23,1.791319,735980.0,11900
1509.41,1.79882,728040.0,11570
1512.58,1.79038,719703.0,11662
1515.75,1.78958,710982.0,11542
1518.92,1.79667,702409.0,11218
1522.08,1.804759,693280.0,10868
1525.24,1.79815,683935.0,10886
1529.44,1.798185,671492.0,10687
1532.59,1.80428,661352.0,10379
1535.73,1.81144,650841.0,10047
1538.87,1.81122,640156.0,9887
1542,1.80851,629036.0,9776
1545.13,1.81664,617445.0,9418
1548.26,1.79964,605527.0,9605
1551.38,1.78266,594133.0,9800
1554.49,1.78318,582894.0,9603
1557.61,1.79353,571271.0,9190
1561.75,1.78977,555940.0,9021
1564.85,1.793049,544812.0,8774
1567.95,1.7849,533402.0,8753
1571.05,1.773611,521915.0,8790
1574.14,1.77077,510788.0,8659
1577.22,1.77244,499607.0,8437
1580.3,1.78581,487992.0,7991
1583.38,1.76456,476265.0,8190
1586.45,1.77295,464618.0,7837
1589.52,1.78789,452782.0,7379
1593.6,1.76468,436897.0,7511
1596.66,1.76569,425551.0,7299
1599.71,1.78405,414191.0,6810
1602.76,1.78207,402799.0,6653
1605.81,1.777987,391352.0,6525
1608.85,1.77263,380811.0,6428
1611.89,1.77026,370076.0,6281
1614.92,1.78594,359798.0,5890
1617.95,1.77766,349165.0,5826
1620.97,1.755393,338717.0,5949
1624.99,1.75835,325435.0,5677
1628.01,1.80128,315463.0,4985
1631.02,1.77305,305570.0,5153
1634.02,1.75947,295762.0,5146
1637.02,1.78335,286306.0,4715
1640.02,1.77408,276696.0,4655
1643.01,1.811726,267004.0,4119
1646,1.77878,257531.0,4286
1648.98,1.76944,247817.0,4214
1651.96,1.7698,238547.0,4053
1655.93,1.7633,225092.0,3882
1658.89,1.76307,214425.0,3700
1661.86,1.81213,202241.0,3117
1664.82,1.7732,188046.0,3170
1667.78,1.78218,171566.0,2833
1670.73,1.8395,154101.0,2230
1673.67,1.68735,134892.0,2771
1676.62,1.70571,115325.0,2271
1679.56,1.77254,97255.0,1642
1682.49,1.79564,81017.0,1297
1686.4,1.695371,63571.0,1282
1689.32,1.61394,53566.0,1303
1692.24,1.73263,45493.0,842
1695.16,2.09793,39217.0,313
1698.07,1.7073,33537.0,658
1700.97,1.77131,29118.0,493