File: Data/HDPE/HDPE15_Column 1_20211229_230232.csv
***Scan Config Information***,,,,,,,***Reference Scan Information***,,,,,,,,
Scan Config Name:,Column 1,,,,,,Scan Config Name:,Built-in Factory Reference,,,,,,
Scan Config Type:,Slew,Num Section:,1,,,,Scan Config Type:,Slew,Num Section:,1,,,,,
Section Config Type:,Column,,,,,,Section Config Type:,Column,,,,,,,
Start Wavelength (nm):,900,,,,,,Start Wavelength (nm):,900.0,,,,,,
End Wavelength (nm):,1700,,,,,,End Wavelength (nm):,1700.0,,,,,,
Pattern Width (nm):,7.03,,,,,,Pattern Width (nm):,7.03,,,,,,,
Exposure (ms):,0.635,,,,,,Exposure (ms):,0.635,,,,,,,
Digital Resolution:,228,,,,,,Digital Resolution:,228,,,,,,,
Num Repeats:,6,,,,,,Num Repeats:,30,,,,,,,
PGA Gain:,64,,,,,,PGA Gain:,64,,,,,,
System Temp (C):,19.71,,,,,,System Temp (C):,24.17,,,,,,,
Humidity (%):,38.64,,,,,,Humidity (%):,30.0,,,,,,
Battery Capacity (%):,69,,,,,,Lamp Intensity:,2449,,,,,,,
Lamp Intensity:,2443,,,,,,Data Date-Time:,19/12/12T12:44:54,,,,,,
Data Date-Time:,18/1/1T7:1:31,,,,,,,,,,,,,,
Total Measurement Time in sec:,4.41,,,,,,,,,,,,,
***General Information***,,,,,,,***Calibration Coefficients***,,,,,,,,
Model Name:,NIR-S-G1,,,,,,Shift Vector Coefficients:,-8.44101,0.0554567,-8.45244e-05,,,,,
Serial Number:,947R055,95UB122GC0A947R055,,,,,Pixel to Wavelength Coefficients:,1795.87,-0.92014,-0.00023961,,,,,
APP Version:,2.16.7,,,,,,,,,,,,,
TIVA Version:,2.4.4,,,,,,***Lamp Usage * **,,,,,,,,
UUID:,de:67:c:88:67:2c:2d:21,,,,,,Total Time(HH:MM:SS):,11min 55sec ,,,,,,,
Main Board Version:,D,,,,,,***Device/Error Status***,,,,,,,,
Detector Board Version:,B,,,,,,Device Status:,0x00000031,,,,,,
,,,,,,,Error status:,0x00000000,Error Code:,0x00000000000000000000000000000000,,,,,
,,,,,,,,,Error Details:,Not Found,,,,,
***Scan Data***,,,,,,,,,,,,,,,
Wavelength (nm),Absorbance (AU),Reference Signal (unitless),Sample Signal (unitless)
901.841,1.48505,99968.0,3272
905.754,1.3737,108993.0,4610
909.663,1.47872,118185.0,3925
913.568,1.48439,129285.0,4238
917.469,1.54605,143347.0,4077
921.365,1.49705,160437.0,5108
925.257,1.4718,180387.0,6087
929.144,1.48149,201426.0,6647
933.028,1.51179,220694.0,6792
936.906,1.47881,237501.0,7886
942.072,1.47024,256956.0,8702
945.94,1.47306,270636.0,9106
949.805,1.47074,283621.0,9594
953.665,1.46188,296982.0,10253
957.521,1.440502,310733.0,11269
961.373,1.4646,324587.0,11136
965.22,1.47048,339205.0,11481
969.063,1.47889,353669.0,11741
972.902,1.4784,368253.0,12239
976.736,1.476884,382531.0,12758
981.842,1.468,399901.0,13613
985.666,1.47054,411528.0,13927
989.486,1.463431,422199.0,14524
993.302,1.45778,431172.0,15027
997.113,1.474296,438051.0,14697
1000.92,1.4773,444216.0,14801
1004.72,1.48099,449307.0,14844
1008.52,1.49238,453601.0,14598
1012.32,1.48288,456801.0,15026
1016.11,1.46957,459312.0,15579
1021.15,1.49138,461643.0,14891
1024.93,1.49733,463069.0,14734
1028.71,1.49493,463868.0,14841
1032.48,1.49169,464326.0,14967
1036.24,1.48529,466001.0,15244
1040.01,1.50538,466870.0,14582
1043.77,1.50517,467033.0,14594
1047.52,1.49623,467045.0,14898
1051.27,1.49838,467467.0,14838
1055.01,1.50046,467627.0,14772
1060,1.50577,468351.0,14615
1063.74,1.50343,469050.0,14716
1067.47,1.50734,469880.0,14610
1071.19,1.50733,471228.0,14652
1074.92,1.52156,472558.0,14220
1078.63,1.49959,474087.0,15006
1082.35,1.51348,476569.0,14610
1086.06,1.51153,479445.0,14764
1089.76,1.52212,481756.0,14478
1093.46,1.51688,485147.0,14757
1098.39,1.52189,489755.0,14726
1102.08,1.50868,493535.0,15298
1105.77,1.52267,497426.0,14930
1109.45,1.518061,501308.0,15207
1113.13,1.50663,505725.0,15750
1116.8,1.51877,509421.0,15428
1120.47,1.52233,513217.0,15416
1124.13,1.52543,517470.0,15433
1127.79,1.51188,521690.0,16052
1131.45,1.52514,526099.0,15701
1136.32,1.53635,531329.0,15453
1139.96,1.52637,535549.0,15938
1143.61,1.54076,539808.0,15541
1147.24,1.55123,543900.0,15286
1150.88,1.54228,547908.0,15719
1154.5,1.55747,552170.0,15297
1158.13,1.56679,556773.0,15097
1161.75,1.57626,561098.0,14886
1165.36,1.5894,565898.0,14566
1168.98,1.58804,571300.0,14751
1172.58,1.59828,576602.0,14541
1177.39,1.600665,584320.0,14655
1180.98,1.62742,589396.0,13899
1184.58,1.63209,596143.0,13908
1188.16,1.63478,602955.0,13980
1191.75,1.63191,609704.0,14230
1195.33,1.66789,617215.0,13260
1198.9,1.672576,624471.0,13272
1202.48,1.689846,632472.0,12918
1206.04,1.701,640381.0,12748
1209.61,1.70819,648161.0,12691
1214.35,1.73769,659999.0,12074
1217.9,1.72308,668609.0,12650
1221.45,1.70853,677405.0,13253
1224.99,1.69096,686281.0,13981
1228.53,1.67274,695317.0,14772
1232.07,1.64978,704063.0,15770
1235.6,1.64592,713007.0,16113
1239.13,1.63241,721330.0,16816
1242.65,1.62189,730030.0,17436
1246.17,1.61146,737591.0,18045
1250.85,1.59468,746809.0,18990
1254.36,1.61036,753336.0,18477
1257.86,1.59712,759907.0,19215
1261.36,1.58754,766538.0,19815
1264.86,1.59119,774802.0,19861
1268.35,1.60205,784025.0,19601
1271.83,1.58515,794336.0,20647
1275.32,1.58644,804198.0,20841
1278.79,1.584652,813836.0,21178
1282.27,1.5896,823595.0,21189
1286.89,1.58691,834533.0,21604
1290.36,1.59281,842581.0,21518
1293.81,1.58359,849301.0,22155
1297.27,1.593,856026.0,21852
1300.72,1.58968,862498.0,22186
1304.17,1.59536,868068.0,22039
1307.61,1.58749,872869.0,22566
1311.05,1.585789,877616.0,22778
1314.48,1.58421,881872.0,22972
1317.91,1.58767,885520.0,22884
1322.47,1.58259,888917.0,23242
1325.89,1.58228,891687.0,23331
1329.31,1.59742,894001.0,22590
1332.72,1.585818,895438.0,23239
1336.12,1.59038,896641.0,23027
1339.52,1.59341,897974.0,22901
1342.92,1.59446,898777.0,22866
1346.31,1.59388,898783.0,22897
1349.7,1.59719,898350.0,22712
1353.09,1.59281,896784.0,22902
1357.59,1.5876,895293.0,23140
1360.97,1.58712,892755.0,23100
1364.34,1.60605,890430.0,22057
1367.7,1.618672,888504.0,21379
1371.06,1.615435,885825.0,21474
1374.42,1.62241,881046.0,21018
1377.77,1.63003,874030.0,20488
1381.12,1.64421,865751.0,19642
1384.47,1.66643,857799.0,18491
1387.81,1.67819,851759.0,17870
1392.25,1.69258,846500.0,17181
1395.58,1.694398,843622.0,17051
1398.91,1.69849,841228.0,16843
1402.23,1.68205,838489.0,17436
1405.55,1.69263,836065.0,16967
1408.86,1.684835,834396.0,17240
1412.17,1.696258,832187.0,16748
1415.47,1.70837,830123.0,16247
1418.77,1.7088,828244.0,16194
1422.07,1.69534,827314.0,16685
1426.45,1.69857,826435.0,16544
1429.74,1.6998,825475.0,16478
1433.02,1.69587,824938.0,16617
1436.29,1.71062,823959.0,16043
1439.57,1.69291,823822.0,16708
1442.83,1.696594,823184.0,16554
1446.1,1.70322,821953.0,16279
1449.36,1.68491,821135.0,16963
1452.61,1.678227,819413.0,17190
1455.86,1.670962,817492.0,17439
1459.11,1.677048,814862.0,17141
1463.43,1.66523,811075.0,17532
1466.67,1.66407,807671.0,17505
1469.9,1.66444,803699.0,17404
1473.13,1.65232,799396.0,17801
1476.35,1.65251,795129.0,17698
1479.57,1.64999,790127.0,17689
1482.78,1.6372,784937.0,18098
1486,1.64704,779544.0,17571
1489.2,1.651,773733.0,17282
1492.4,1.64105,767463.0,17539
1496.67,1.6336,758614.0,17637
1499.86,1.64017,751802.0,17216
1503.04,1.64486,744297.0,16861
1506.23,1.63136,735980.0,17199
1509.41,1.630915,728040.0,17031
1512.58,1.645926,719703.0,16264
1515.75,1.63823,710982.0,16354
1518.92,1.63374,702409.0,16325
1522.08,1.63861,693280.0,15933
1525.24,1.64508,683935.0,15486
1529.44,1.63595,671492.0,15527
1532.59,1.63996,661352.0,15152
1535.73,1.65064,650841.0,14549
1538.87,1.63614,640156.0,14796
1542,1.64804,629036.0,14146
1545.13,1.64887,617445.0,13859
1548.26,1.63532,605527.0,14022
1551.38,1.63561,594133.0,13749
1554.49,1.634356,582894.0,13528
1557.61,1.63055,571271.0,13375
1561.75,1.63212,555940.0,12969
1564.85,1.63491,544812.0,12628
1567.95,1.63828,533402.0,12268
1571.05,1.64289,521915.0,11877
1574.14,1.630074,510788.0,11972
1577.22,1.63148,499607.0,11672
1580.3,1.61513,487992.0,11838
1583.38,1.62026,476265.0,11418
1586.45,1.62903,464618.0,10916
1589.52,1.64267,452782.0,10309
1593.6,1.62674,436897.0,10319
1596.66,1.61271,425551.0,10381
1599.71,1.61946,414191.0,9948
1602.76,1.63358,402799.0,9365
1605.81,1.618655,391352.0,9417
1608.85,1.62238,380811.0,9085
1611.89,1.63268,370076.0,8622
1614.92,1.62905,359798.0,8453
1617.95,1.65278,349165.0,7767
1620.97,1.61873,338717.0,8149
1624.99,1.63222,325435.0,7590
1628.01,1.64011,315463.0,7225
1631.02,1.64231,305570.0,6963
1634.02,1.63354,295762.0,6877
1637.02,1.64152,286306.0,6536
1640.02,1.62174,276696.0,6611
1643.01,1.62863,267004.0,6279
1646,1.653054,257531.0,5725
1648.98,1.64968,247817.0,5552
1651.96,1.629541,238547.0,5598
1655.93,1.65522,225092.0,4979
1658.89,1.66541,214425.0,4633
1661.86,1.64104,202241.0,4622
1664.82,1.67745,188046.0,3952
1667.78,1.63433,171566.0,3982
1670.73,1.74423,154101.0,2777
1673.67,1.78855,134892.0,2195
1676.62,1.73785,115325.0,2109
1679.56,1.78871,97255.0,1582
1682.49,1.99582,81017.0,818
1686.4,1.76266,63571.0,1098
1689.32,1.73282,53566.0,991
1692.24,1.71396,45493.0,879
1695.16,1.890183,39217.0,505
1698.07,2.11728,33537.0,256
1700.97,2.064488,29118.0,251