File: Data/HDPE/HDPE2_Column 1_20211229_164058.csv
***Scan Config Information***,,,,,,,***Reference Scan Information***,,,,,,,,
Scan Config Name:,Column 1,,,,,,Scan Config Name:,Built-in Factory Reference,,,,,,
Scan Config Type:,Slew,Num Section:,1,,,,Scan Config Type:,Slew,Num Section:,1,,,,,
Section Config Type:,Column,,,,,,Section Config Type:,Column,,,,,,,
Start Wavelength (nm):,900,,,,,,Start Wavelength (nm):,900.0,,,,,,
End Wavelength (nm):,1700,,,,,,End Wavelength (nm):,1700.0,,,,,,
Pattern Width (nm):,7.03,,,,,,Pattern Width (nm):,7.03,,,,,,,
Exposure (ms):,0.635,,,,,,Exposure (ms):,0.635,,,,,,,
Digital Resolution:,228,,,,,,Digital Resolution:,228,,,,,,,
Num Repeats:,6,,,,,,Num Repeats:,30,,,,,,,
PGA Gain:,64,,,,,,PGA Gain:,64,,,,,,
System Temp (C):,25.32,,,,,,System Temp (C):,24.17,,,,,,,
Humidity (%):,36.18,,,,,,Humidity (%):,30.0,,,,,,
Battery Capacity (%):,75,,,,,,Lamp Intensity:,2449,,,,,,,
Lamp Intensity:,2518,,,,,,Data Date-Time:,19/12/12T12:44:54,,,,,,
Data Date-Time:,18/1/1T7:10:18,,,,,,,,,,,,,,
Total Measurement Time in sec:,5.033,,,,,,,,,,,,,
***General Information***,,,,,,,***Calibration Coefficients***,,,,,,,,
Model Name:,NIR-S-G1,,,,,,Shift Vector Coefficients:,-8.44101,0.0554567,-8.45244e-05,,,,,
Serial Number:,947R055,95UB122GC0A947R055,,,,,Pixel to Wavelength Coefficients:,1795.87,-0.92014,-0.00023961,,,,,
APP Version:,2.16.7,,,,,,,,,,,,,
TIVA Version:,2.4.4,,,,,,***Lamp Usage * **,,,,,,,,
UUID:,de:67:c:88:67:2c:2d:21,,,,,,Total Time(HH:MM:SS):,11min 26sec ,,,,,,,
Main Board Version:,D,,,,,,***Device/Error Status***,,,,,,,,
Detector Board Version:,B,,,,,,Device Status:,0x00000031,,,,,,
,,,,,,,Error status:,0x00000000,Error Code:,0x00000000000000000000000000000000,,,,,
,,,,,,,,,Error Details:,Not Found,,,,,
***Scan Data***,,,,,,,,,,,,,,,
Wavelength (nm),Absorbance (AU),Reference Signal (unitless),Sample Signal (unitless)
901.841,1.2526,99968.0,5588
905.754,1.24062,108993.0,6263
909.663,1.24082,118185.0,6788
913.568,1.26385,129285.0,7042
917.469,1.28558,143347.0,7427
921.365,1.275324,160437.0,8511
925.257,1.28456,180387.0,9368
929.144,1.27815,201426.0,10616
933.028,1.27583,220694.0,11694
936.906,1.29209,237501.0,12122
942.072,1.257754,256956.0,14194
945.94,1.271767,270636.0,14475
949.805,1.27451,283621.0,15074
953.665,1.27292,296982.0,15842
957.521,1.25671,310733.0,17206
961.373,1.25219,324587.0,18161
965.22,1.26128,339205.0,18586
969.063,1.2525,353669.0,19774
972.902,1.25452,368253.0,20494
976.736,1.26817,382531.0,20630
981.842,1.26389,399901.0,21780
985.666,1.26736,411528.0,22235
989.486,1.27318,422199.0,22508
993.302,1.268321,431172.0,23245
997.113,1.276018,438051.0,23201
1000.92,1.26682,444216.0,24031
1004.72,1.27125,449307.0,24060
1008.52,1.277024,453601.0,23969
1012.32,1.26754,456801.0,24671
1016.11,1.28119,459312.0,24039
1021.15,1.27793,461643.0,24343
1024.93,1.28745,463069.0,23889
1028.71,1.282615,463868.0,24198
1032.48,1.28813,464326.0,23916
1036.24,1.28771,466001.0,24026
1040.01,1.29326,466870.0,23765
1043.77,1.29982,467033.0,23417
1047.52,1.29289,467045.0,23794
1051.27,1.29758,467467.0,23560
1055.01,1.29996,467627.0,23439
1060,1.29172,468351.0,23925
1063.74,1.303826,469050.0,23302
1067.47,1.29377,469880.0,23890
1071.19,1.293,471228.0,24001
1074.92,1.2993,472558.0,23722
1078.63,1.3008,474087.0,23717
1082.35,1.30272,476569.0,23736
1086.06,1.300003,479445.0,24029
1089.76,1.3024,481756.0,24012
1093.46,1.29973,485147.0,24330
1098.39,1.30248,489755.0,24406
1102.08,1.30548,493535.0,24425
1105.77,1.29962,497426.0,24952
1109.45,1.29803,501308.0,25239
1113.13,1.31542,505725.0,24462
1116.8,1.31051,509421.0,24921
1120.47,1.305741,513217.0,25384
1124.13,1.30992,517470.0,25349
1127.79,1.31094,521690.0,25496
1131.45,1.30391,526099.0,26131
1136.32,1.31007,531329.0,26019
1139.96,1.318427,535549.0,25726
1143.61,1.3218,539808.0,25730
1147.24,1.32535,543900.0,25714
1150.88,1.33263,547908.0,25473
1154.5,1.336863,552170.0,25422
1158.13,1.34793,556773.0,24989
1161.75,1.35214,561098.0,24940
1165.36,1.3617,565898.0,24606
1168.98,1.385,571300.0,23543
1172.58,1.3827,576602.0,23888
1177.39,1.38851,584320.0,23886
1180.98,1.3967,589396.0,23643
1184.58,1.39923,596143.0,23775
1188.16,1.41437,602955.0,23223
1191.75,1.42217,609704.0,23065
1195.33,1.44408,617215.0,22200
1198.9,1.45232,624471.0,22039
1202.48,1.48337,632472.0,20781
1206.04,1.50081,640381.0,20213
1209.61,1.52451,648161.0,19372
1214.35,1.53726,659999.0,19155
1217.9,1.53119,668609.0,19678
1221.45,1.51174,677405.0,20850
1224.99,1.48728,686281.0,22347
1228.53,1.46076,695317.0,24067
1232.07,1.43929,704063.0,25605
1235.6,1.42439,713007.0,26835
1239.13,1.40896,721330.0,28130
1242.65,1.40013,730030.0,29054
1246.17,1.39591,737591.0,29642
1250.85,1.3856,746809.0,30733
1254.36,1.37931,753336.0,31454
1257.86,1.37247,759907.0,32232
1261.36,1.3694,766538.0,32744
1264.86,1.36706,774802.0,33276
1268.35,1.36711,784025.0,33668
1271.83,1.36458,794336.0,34310
1275.32,1.36148,804198.0,34985
1278.79,1.36887,813836.0,34807
1282.27,1.36752,823595.0,35334
1286.89,1.36766,834533.0,35792
1290.36,1.36316,842581.0,36513
1293.81,1.36494,849301.0,36654
1297.27,1.36709,856026.0,36762
1300.72,1.36311,862498.0,37381
1304.17,1.367719,868068.0,37225
1307.61,1.36633,872869.0,37551
1311.05,1.36348,877616.0,38004
1314.48,1.36538,881872.0,38021
1317.91,1.363218,885520.0,38369
1322.47,1.36447,888917.0,38405
1325.89,1.36315,891687.0,38642
1329.31,1.36186,894001.0,38858
1332.72,1.36691,895438.0,38470
1336.12,1.36908,896641.0,38330
1339.52,1.364992,897974.0,38750
1342.92,1.36833,898777.0,38488
1346.31,1.37541,898783.0,37866
1349.7,1.37405,898350.0,37966
1353.09,1.37551,896784.0,37773
1357.59,1.37176,895293.0,38037
1360.97,1.37499,892755.0,37648
1364.34,1.38061,890430.0,37067
1367.7,1.3871,888504.0,36438
1371.06,1.39442,885825.0,35721
1374.42,1.40084,881046.0,35007
1377.77,1.40952,874030.0,34041
1381.12,1.42516,865751.0,32526
1384.47,1.43538,857799.0,31478
1387.81,1.46181,851759.0,29411
1392.25,1.48852,846500.0,27486
1395.58,1.48883,843622.0,27373
1398.91,1.488767,841228.0,27299
1402.23,1.47594,838489.0,28026
1405.55,1.474586,836065.0,28032
1408.86,1.47494,834396.0,27953
1412.17,1.49129,832187.0,26849
1415.47,1.50053,830123.0,26219
1418.77,1.506808,828244.0,25784
1422.07,1.50245,827314.0,26015
1426.45,1.50588,826435.0,25783
1429.74,1.49885,825475.0,26173
1433.02,1.49709,824938.0,26262
1436.29,1.49358,823959.0,26444
1439.57,1.491998,823822.0,26536
1442.83,1.48418,823184.0,26997
1446.1,1.48199,821953.0,27093
1449.36,1.47551,821135.0,27473
1452.61,1.46841,819413.0,27867
1455.86,1.46454,817492.0,28051
1459.11,1.46247,814862.0,28094
1463.43,1.4582,811075.0,28240
1466.67,1.45301,807671.0,28459
1469.9,1.4456,803699.0,28807
1473.13,1.44009,799396.0,29018
1476.35,1.437785,795129.0,29017
1479.57,1.43081,790127.0,29301
1482.78,1.42915,784937.0,29220
1486,1.43447,779544.0,28666
1489.2,1.427513,773733.0,28912
1492.4,1.42488,767463.0,28852
1496.67,1.42478,758614.0,28526
1499.86,1.42384,751802.0,28331
1503.04,1.42134,744297.0,28210
1506.23,1.42567,735980.0,27618
1509.41,1.4268,728040.0,27249
1512.58,1.42058,719703.0,27326
1515.75,1.43633,710982.0,26033
1518.92,1.42397,702409.0,26462
1522.08,1.42355,693280.0,26143
1525.24,1.42819,683935.0,25517
1529.44,1.43229,671492.0,24817
1532.59,1.43549,661352.0,24263
1535.73,1.4291,650841.0,24231
1538.87,1.43337,640156.0,23600
1542,1.44253,629036.0,22706
1545.13,1.44066,617445.0,22384
1548.26,1.4367,605527.0,22153
1551.38,1.42771,594133.0,22191
1554.49,1.426914,582894.0,21811
1557.61,1.426327,571271.0,21405
1561.75,1.416424,555940.0,21311
1564.85,1.4185,544812.0,20785
1567.95,1.420501,533402.0,20256
1571.05,1.42296,521915.0,19708
1574.14,1.42609,510788.0,19149
1577.22,1.42281,499607.0,18872
1580.3,1.4276,487992.0,18231
1583.38,1.41457,476265.0,18335
1586.45,1.42195,464618.0,17585
1589.52,1.41507,452782.0,17411
1593.6,1.42969,436897.0,16244
1596.66,1.41759,425551.0,16269
1599.71,1.421218,414191.0,15703
1602.76,1.4221,402799.0,15240
1605.81,1.40881,391352.0,15267
1608.85,1.42153,380811.0,14427
1611.89,1.41542,370076.0,14219
1614.92,1.4207,359798.0,13657
1617.95,1.41353,349165.0,13474
1620.97,1.4207,338717.0,12857
1624.99,1.42493,325435.0,12233
1628.01,1.41312,315463.0,12185
1631.02,1.434731,305570.0,11230
1634.02,1.42107,295762.0,11217
1637.02,1.42603,286306.0,10735
1640.02,1.42484,276696.0,10403
1643.01,1.41817,267004.0,10194
1646,1.42675,257531.0,9640
1648.98,1.42147,247817.0,9390
1651.96,1.42295,238547.0,9008
1655.93,1.42622,225092.0,8436
1658.89,1.43074,214425.0,7953
1661.86,1.4083,202241.0,7899
1664.82,1.43889,188046.0,6845
1667.78,1.3964,171566.0,6887
1670.73,1.41887,154101.0,5874
1673.67,1.39407,134892.0,5444
1676.62,1.42433,115325.0,4341
1679.56,1.40973,97255.0,3786
1682.49,1.43218,81017.0,2995
1686.4,1.412324,63571.0,2460
1689.32,1.42397,53566.0,2018
1692.24,1.42444,45493.0,1712
1695.16,1.37969,39217.0,1636
1698.07,1.37354,33537.0,1419
1700.97,1.40422,29118.0,1148