File: Data/HDPE/HDPE9_Column 1_20211229_164240.csv
***Scan Config Information***,,,,,,,***Reference Scan Information***,,,,,,,,
Scan Config Name:,Column 1,,,,,,Scan Config Name:,Built-in Factory Reference,,,,,,
Scan Config Type:,Slew,Num Section:,1,,,,Scan Config Type:,Slew,Num Section:,1,,,,,
Section Config Type:,Column,,,,,,Section Config Type:,Column,,,,,,,
Start Wavelength (nm):,900,,,,,,Start Wavelength (nm):,900.0,,,,,,
End Wavelength (nm):,1700,,,,,,End Wavelength (nm):,1700.0,,,,,,
Pattern Width (nm):,7.03,,,,,,Pattern Width (nm):,7.03,,,,,,,
Exposure (ms):,0.635,,,,,,Exposure (ms):,0.635,,,,,,,
Digital Resolution:,228,,,,,,Digital Resolution:,228,,,,,,,
Num Repeats:,6,,,,,,Num Repeats:,30,,,,,,,
PGA Gain:,64,,,,,,PGA Gain:,64,,,,,,
System Temp (C):,26.67,,,,,,System Temp (C):,24.17,,,,,,,
Humidity (%):,37.21,,,,,,Humidity (%):,30.0,,,,,,
Battery Capacity (%):,74,,,,,,Lamp Intensity:,2449,,,,,,,
Lamp Intensity:,2543,,,,,,Data Date-Time:,19/12/12T12:44:54,,,,,,
Data Date-Time:,18/1/1T7:11:57,,,,,,,,,,,,,,
Total Measurement Time in sec:,4.217,,,,,,,,,,,,,
***General Information***,,,,,,,***Calibration Coefficients***,,,,,,,,
Model Name:,NIR-S-G1,,,,,,Shift Vector Coefficients:,-8.44101,0.0554567,-8.45244e-05,,,,,
Serial Number:,947R055,95UB122GC0A947R055,,,,,Pixel to Wavelength Coefficients:,1795.87,-0.92014,-0.00023961,,,,,
APP Version:,2.16.7,,,,,,,,,,,,,
TIVA Version:,2.4.4,,,,,,***Lamp Usage * **,,,,,,,,
UUID:,de:67:c:88:67:2c:2d:21,,,,,,Total Time(HH:MM:SS):,11min 42sec ,,,,,,,
Main Board Version:,D,,,,,,***Device/Error Status***,,,,,,,,
Detector Board Version:,B,,,,,,Device Status:,0x00000031,,,,,,
,,,,,,,Error status:,0x00000000,Error Code:,0x00000000000000000000000000000000,,,,,
,,,,,,,,,Error Details:,Not Found,,,,,
***Scan Data***,,,,,,,,,,,,,,,
Wavelength (nm),Absorbance (AU),Reference Signal (unitless),Sample Signal (unitless)
901.841,1.47637,99968.0,3338
905.754,1.49682,108993.0,3472
909.663,1.53537,118185.0,3445
913.568,1.5271,129285.0,3841
917.469,1.54002,143347.0,4134
921.365,1.54444,160437.0,4580
925.257,1.58116,180387.0,4732
929.144,1.6041,201426.0,5012
933.028,1.61091,220694.0,5406
936.906,1.58608,237501.0,6160
942.072,1.5845,256956.0,6689
945.94,1.59676,270636.0,6849
949.805,1.55161,283621.0,7964
953.665,1.57351,296982.0,7929
957.521,1.573257,310733.0,8301
961.373,1.58669,324587.0,8407
965.22,1.566014,339205.0,9214
969.063,1.573441,353669.0,9444
972.902,1.5779,368253.0,9733
976.736,1.577143,382531.0,10128
981.842,1.56873,399901.0,10795
985.666,1.59313,411528.0,10502
989.486,1.58094,422199.0,11081
993.302,1.57717,431172.0,11415
997.113,1.60144,438051.0,10967
1000.92,1.5822,444216.0,11625
1004.72,1.58596,449307.0,11657
1008.52,1.60091,453601.0,11370
1012.32,1.59941,456801.0,11490
1016.11,1.59698,459312.0,11618
1021.15,1.59932,461643.0,11614
1024.93,1.61311,463069.0,11286
1028.71,1.61209,463868.0,11332
1032.48,1.63135,464326.0,10851
1036.24,1.6244,466001.0,11066
1040.01,1.62607,466870.0,11044
1043.77,1.62736,467033.0,11015
1047.52,1.60911,467045.0,11488
1051.27,1.63189,467467.0,10911
1055.01,1.63267,467627.0,10895
1060,1.634222,468351.0,10873
1063.74,1.62247,469050.0,11188
1067.47,1.62933,469880.0,11032
1071.19,1.64174,471228.0,10752
1074.92,1.63639,472558.0,10916
1078.63,1.63344,474087.0,11026
1082.35,1.63374,476569.0,11076
1086.06,1.637691,479445.0,11042
1089.76,1.6462,481756.0,10880
1093.46,1.61791,485147.0,11694
1098.39,1.63856,489755.0,11257
1102.08,1.63531,493535.0,11429
1105.77,1.64805,497426.0,11186
1109.45,1.64396,501308.0,11380
1113.13,1.64709,505725.0,11398
1116.8,1.64529,509421.0,11529
1120.47,1.66784,513217.0,11027
1124.13,1.65168,517470.0,11540
1127.79,1.64752,521690.0,11746
1131.45,1.65281,526099.0,11702
1136.32,1.67649,531329.0,11191
1139.96,1.66969,535549.0,11458
1143.61,1.682595,539808.0,11211
1147.24,1.67949,543900.0,11377
1150.88,1.6991,547908.0,10955
1154.5,1.69757,552170.0,11079
1158.13,1.69712,556773.0,11183
1161.75,1.71098,561098.0,10916
1165.36,1.755177,565898.0,9944
1168.98,1.75483,571300.0,10047
1172.58,1.74134,576602.0,10460
1177.39,1.76147,584320.0,10120
1180.98,1.76206,589396.0,10194
1184.58,1.779496,596143.0,9905
1188.16,1.79043,602955.0,9769
1191.75,1.79745,609704.0,9720
1195.33,1.81542,617215.0,9441
1198.9,1.84681,624471.0,8886
1202.48,1.84864,632472.0,8962
1206.04,1.88658,640381.0,8315
1209.61,1.88808,648161.0,8387
1214.35,1.90897,659999.0,8139
1217.9,1.87843,668609.0,8846
1221.45,1.88735,677405.0,8780
1224.99,1.86421,686281.0,9382
1228.53,1.835888,695317.0,10146
1232.07,1.82461,704063.0,10544
1235.6,1.80609,713007.0,11143
1239.13,1.80961,721330.0,11182
1242.65,1.77791,730030.0,12174
1246.17,1.78057,737591.0,12225
1250.85,1.76583,746809.0,12805
1254.36,1.76208,753336.0,13029
1257.86,1.753105,759907.0,13417
1261.36,1.749783,766538.0,13638
1264.86,1.75092,774802.0,13749
1268.35,1.7457,784025.0,14081
1271.83,1.7342,794336.0,14649
1275.32,1.73528,804198.0,14794
1278.79,1.73951,813836.0,14826
1282.27,1.75163,823595.0,14591
1286.89,1.75286,834533.0,14743
1290.36,1.7338,842581.0,15553
1293.81,1.73608,849301.0,15595
1297.27,1.7421,856026.0,15502
1300.72,1.74796,862498.0,15410
1304.17,1.74786,868068.0,15513
1307.61,1.72804,872869.0,16327
1311.05,1.74082,877616.0,15940
1314.48,1.75128,881872.0,15636
1317.91,1.73392,885520.0,16341
1322.47,1.73492,888917.0,16366
1325.89,1.74422,891687.0,16069
1329.31,1.73454,894001.0,16474
1332.72,1.74505,895438.0,16106
1336.12,1.74206,896641.0,16239
1339.52,1.75274,897974.0,15868
1342.92,1.73569,898777.0,16518
1346.31,1.74101,898783.0,16317
1349.7,1.75265,898350.0,15878
1353.09,1.75659,896784.0,15707
1357.59,1.7584,895293.0,15616
1360.97,1.75197,892755.0,15804
1364.34,1.75606,890430.0,15615
1367.7,1.7661,888504.0,15225
1371.06,1.77656,885825.0,14818
1374.42,1.78348,881046.0,14505
1377.77,1.79751,874030.0,13932
1381.12,1.80373,865751.0,13604
1384.47,1.82743,857799.0,12763
1387.81,1.82854,851759.0,12641
1392.25,1.87849,846500.0,11198
1395.58,1.86553,843622.0,11498
1398.91,1.86463,841228.0,11489
1402.23,1.84482,838489.0,11986
1405.55,1.848925,836065.0,11839
1408.86,1.86079,834396.0,11497
1412.17,1.88037,832187.0,10961
1415.47,1.87449,830123.0,11083
1418.77,1.88433,828244.0,10810
1422.07,1.86463,827314.0,11299
1426.45,1.8888,826435.0,10676
1429.74,1.88167,825475.0,10840
1433.02,1.86658,824938.0,11216
1436.29,1.86556,823959.0,11229
1439.57,1.86871,823822.0,11146
1442.83,1.85737,823184.0,11432
1446.1,1.854527,821953.0,11490
1449.36,1.86122,821135.0,11303
1452.61,1.84587,819413.0,11685
1455.86,1.8469,817492.0,11630
1459.11,1.83917,814862.0,11801
1463.43,1.84233,811075.0,11661
1466.67,1.8212,807671.0,12191
1469.9,1.82704,803699.0,11969
1473.13,1.810322,799396.0,12372
1476.35,1.81869,795129.0,12071
1479.57,1.81294,790127.0,12155
1482.78,1.81381,784937.0,12051
1486,1.798384,779544.0,12401
1489.2,1.792655,773733.0,12472
1492.4,1.79066,767463.0,12428
1496.67,1.81284,758614.0,11673
1499.86,1.80283,751802.0,11838
1503.04,1.79282,744297.0,11993
1506.23,1.79749,735980.0,11732
1509.41,1.80214,728040.0,11482
1512.58,1.78689,719703.0,11756
1515.75,1.79855,710982.0,11306
1518.92,1.79255,702409.0,11325
1522.08,1.78864,693280.0,11279
1525.24,1.81,683935.0,10593
1529.44,1.80284,671492.0,10573
1532.59,1.80182,661352.0,10438
1535.73,1.81766,650841.0,9904
1538.87,1.81012,640156.0,9912
1542,1.80265,629036.0,9909
1545.13,1.81338,617445.0,9489
1548.26,1.78821,605527.0,9861
1551.38,1.78515,594133.0,9744
1554.49,1.80157,582894.0,9205
1557.61,1.8013,571271.0,9027
1561.75,1.79388,555940.0,8936
1564.85,1.77706,544812.0,9103
1567.95,1.75983,533402.0,9273
1571.05,1.78711,521915.0,8521
1574.14,1.76762,510788.0,8722
1577.22,1.78752,499607.0,8149
1580.3,1.78127,487992.0,8075
1583.38,1.77918,476265.0,7919
1586.45,1.77819,464618.0,7743
1589.52,1.78019,452782.0,7511
1593.6,1.77021,436897.0,7416
1596.66,1.7679,425551.0,7262
1599.71,1.75334,414191.0,7309
1602.76,1.7545,402799.0,7089
1605.81,1.74027,391352.0,7117
1608.85,1.7646,380811.0,6548
1611.89,1.75813,370076.0,6459
1614.92,1.77718,359798.0,6010
1617.95,1.79106,349165.0,5649
1620.97,1.77763,338717.0,5652
1624.99,1.78354,325435.0,5357
1628.01,1.76784,315463.0,5384
1631.02,1.7813,305570.0,5056
1634.02,1.76989,295762.0,5024
1637.02,1.75699,286306.0,5010
1640.02,1.725,276696.0,5212
1643.01,1.75368,267004.0,4708
1646,1.8038,257531.0,4046
1648.98,1.7683,247817.0,4225
1651.96,1.72215,238547.0,4523
1655.93,1.787694,225092.0,3670
1658.89,1.75528,214425.0,3767
1661.86,1.75834,202241.0,3528
1664.82,1.78374,188046.0,3094
1667.78,1.72135,171566.0,3259
1670.73,1.74049,154101.0,2801
1673.67,1.64854,134892.0,3030
1676.62,1.75981,115325.0,2005
1679.56,1.72357,97255.0,1838
1682.49,1.738608,81017.0,1479
1686.4,1.60405,63571.0,1582
1689.32,1.6461,53566.0,1210
1692.24,1.54803,45493.0,1288
1695.16,1.6094,39217.0,964
1698.07,1.61597,33537.0,812
1700.97,1.73581,29118.0,535