File: Data/HDPE/HDPE1_Column 1_20211229_164041.csv
***Scan Config Information***,,,,,,,***Reference Scan Information***,,,,,,,,
Scan Config Name:,Column 1,,,,,,Scan Config Name:,Built-in Factory Reference,,,,,,
Scan Config Type:,Slew,Num Section:,1,,,,Scan Config Type:,Slew,Num Section:,1,,,,,
Section Config Type:,Column,,,,,,Section Config Type:,Column,,,,,,,
Start Wavelength (nm):,900,,,,,,Start Wavelength (nm):,900.0,,,,,,
End Wavelength (nm):,1700,,,,,,End Wavelength (nm):,1700.0,,,,,,
Pattern Width (nm):,7.03,,,,,,Pattern Width (nm):,7.03,,,,,,,
Exposure (ms):,0.635,,,,,,Exposure (ms):,0.635,,,,,,,
Digital Resolution:,228,,,,,,Digital Resolution:,228,,,,,,,
Num Repeats:,6,,,,,,Num Repeats:,30,,,,,,,
PGA Gain:,64,,,,,,PGA Gain:,64,,,,,,
System Temp (C):,25.13,,,,,,System Temp (C):,24.17,,,,,,,
Humidity (%):,36.24,,,,,,Humidity (%):,30.0,,,,,,
Battery Capacity (%):,76,,,,,,Lamp Intensity:,2449,,,,,,,
Lamp Intensity:,2514,,,,,,Data Date-Time:,19/12/12T12:44:54,,,,,,
Data Date-Time:,18/1/1T7:10:1,,,,,,,,,,,,,,
Total Measurement Time in sec:,3.143,,,,,,,,,,,,,
***General Information***,,,,,,,***Calibration Coefficients***,,,,,,,,
Model Name:,NIR-S-G1,,,,,,Shift Vector Coefficients:,-8.44101,0.0554567,-8.45244e-05,,,,,
Serial Number:,947R055,95UB122GC0A947R055,,,,,Pixel to Wavelength Coefficients:,1795.87,-0.92014,-0.00023961,,,,,
APP Version:,2.16.7,,,,,,,,,,,,,
TIVA Version:,2.4.4,,,,,,***Lamp Usage * **,,,,,,,,
UUID:,de:67:c:88:67:2c:2d:21,,,,,,Total Time(HH:MM:SS):,11min 24sec ,,,,,,,
Main Board Version:,D,,,,,,***Device/Error Status***,,,,,,,,
Detector Board Version:,B,,,,,,Device Status:,0x00000031,,,,,,
,,,,,,,Error status:,0x00000000,Error Code:,0x00000000000000000000000000000000,,,,,
,,,,,,,,,Error Details:,Not Found,,,,,
***Scan Data***,,,,,,,,,,,,,,,
Wavelength (nm),Absorbance (AU),Reference Signal (unitless),Sample Signal (unitless)
901.841,1.30228,99968.0,4984
905.754,1.29933,108993.0,5471
909.663,1.33593,118185.0,5453
913.568,1.3313,129285.0,6029
917.469,1.34094,143347.0,6538
921.365,1.34773,160437.0,7204
925.257,1.33603,180387.0,8321
929.144,1.35516,201426.0,8891
933.028,1.34789,220694.0,9906
936.906,1.34567,237501.0,10715
942.072,1.35166,256956.0,11434
945.94,1.33593,270636.0,12487
949.805,1.32742,283621.0,13345
953.665,1.33865,296982.0,13617
957.521,1.32516,310733.0,14697
961.373,1.32548,324587.0,15341
965.22,1.33887,339205.0,15545
969.063,1.325,353669.0,16734
972.902,1.32291,368253.0,17508
976.736,1.3405,382531.0,17465
981.842,1.32856,399901.0,18767
985.666,1.331166,411528.0,19197
989.486,1.34064,422199.0,19270
993.302,1.34144,431172.0,19643
997.113,1.342497,438051.0,19908
1000.92,1.34347,444216.0,20143
1004.72,1.33741,449307.0,20660
1008.52,1.34541,453601.0,20477
1012.32,1.35517,456801.0,20163
1016.11,1.35269,459312.0,20390
1021.15,1.35135,461643.0,20557
1024.93,1.35836,463069.0,20290
1028.71,1.35725,463868.0,20377
1032.48,1.358344,464326.0,20346
1036.24,1.36866,466001.0,19940
1040.01,1.37255,466870.0,19799
1043.77,1.37378,467033.0,19750
1047.52,1.36427,467045.0,20188
1051.27,1.37245,467467.0,19829
1055.01,1.37895,467627.0,19541
1060,1.36286,468351.0,20310
1063.74,1.37302,469050.0,19870
1067.47,1.374314,469880.0,19846
1071.19,1.375799,471228.0,19835
1074.92,1.370525,472558.0,20134
1078.63,1.373722,474087.0,20051
1082.35,1.37625,476569.0,20039
1086.06,1.38425,479445.0,19792
1089.76,1.3797,481756.0,20097
1093.46,1.38078,485147.0,20188
1098.39,1.3822,489755.0,20313
1102.08,1.38414,493535.0,20379
1105.77,1.37586,497426.0,20935
1109.45,1.390134,501308.0,20416
1113.13,1.38221,505725.0,20975
1116.8,1.38552,509421.0,20968
1120.47,1.38399,513217.0,21199
1124.13,1.38561,517470.0,21295
1127.79,1.38477,521690.0,21510
1131.45,1.40044,526099.0,20923
1136.32,1.39825,531329.0,21238
1139.96,1.40481,535549.0,21086
1143.61,1.397,539808.0,21639
1147.24,1.41361,543900.0,20985
1150.88,1.42112,547908.0,20777
1154.5,1.42627,552170.0,20692
1158.13,1.43139,556773.0,20620
1161.75,1.4479,561098.0,20005
1165.36,1.449823,565898.0,20087
1168.98,1.46176,571300.0,19729
1172.58,1.465463,576602.0,19743
1177.39,1.47838,584320.0,19421
1180.98,1.49017,589396.0,19065
1184.58,1.48556,596143.0,19489
1188.16,1.49793,602955.0,19158
1191.75,1.51479,609704.0,18635
1195.33,1.53758,617215.0,17900
1198.9,1.55961,624471.0,17215
1202.48,1.56792,632472.0,17105
1206.04,1.58969,640381.0,16472
1209.61,1.61308,648161.0,15798
1214.35,1.63602,659999.0,15259
1217.9,1.6156,668609.0,16202
1221.45,1.59923,677405.0,17046
1224.99,1.58447,686281.0,17866
1228.53,1.551792,695317.0,19516
1232.07,1.52645,704063.0,20949
1235.6,1.51422,713007.0,21821
1239.13,1.50184,721330.0,22714
1242.65,1.485561,730030.0,23866
1246.17,1.48098,737591.0,24369
1250.85,1.47179,746809.0,25201
1254.36,1.46866,753336.0,25605
1257.86,1.46756,759907.0,25894
1261.36,1.457811,766538.0,26713
1264.86,1.45296,774802.0,27304
1268.35,1.45617,784025.0,27426
1271.83,1.45263,794336.0,28014
1275.32,1.44709,804198.0,28726
1278.79,1.4525,813836.0,28710
1282.27,1.4495,823595.0,29256
1286.89,1.44367,834533.0,30045
1290.36,1.44458,842581.0,30271
1293.81,1.45271,849301.0,29947
1297.27,1.44896,856026.0,30446
1300.72,1.45267,862498.0,30415
1304.17,1.45209,868068.0,30652
1307.61,1.44963,872869.0,30997
1311.05,1.44356,877616.0,31604
1314.48,1.44852,881872.0,31397
1317.91,1.44498,885520.0,31785
1322.47,1.45285,888917.0,31334
1325.89,1.44913,891687.0,31702
1329.31,1.44579,894001.0,32029
1332.72,1.44392,895438.0,32219
1336.12,1.45523,896641.0,31433
1339.52,1.44977,897974.0,31878
1342.92,1.44933,898777.0,31939
1346.31,1.4471,898783.0,32104
1349.7,1.45476,898350.0,31527
1353.09,1.45185,896784.0,31684
1357.59,1.46332,895293.0,30807
1360.97,1.4602,892755.0,30941
1364.34,1.46125,890430.0,30786
1367.7,1.47066,888504.0,30061
1371.06,1.47635,885825.0,29580
1374.42,1.47985,881046.0,29184
1377.77,1.49637,874030.0,27871
1381.12,1.50936,865751.0,26794
1384.47,1.52932,857799.0,25355
1387.81,1.5481,851759.0,24111
1392.25,1.57876,846500.0,22329
1395.58,1.58521,843622.0,21925
1398.91,1.573504,841228.0,22460
1402.23,1.56115,838489.0,23033
1405.55,1.56117,836065.0,22965
1408.86,1.57359,834396.0,22273
1412.17,1.57313,832187.0,22238
1415.47,1.57395,830123.0,22141
1418.77,1.57827,828244.0,21872
1422.07,1.58449,827314.0,21537
1426.45,1.57837,826435.0,21819
1429.74,1.57817,825475.0,21804
1433.02,1.57713,824938.0,21842
1436.29,1.58349,823959.0,21499
1439.57,1.57044,823822.0,22151
1442.83,1.57229,823184.0,22040
1446.1,1.55842,821953.0,22721
1449.36,1.55545,821135.0,22854
1452.61,1.55104,819413.0,23039
1455.86,1.54763,817492.0,23166
1459.11,1.54442,814862.0,23263
1463.43,1.530954,811075.0,23884
1466.67,1.52797,807671.0,23948
1469.9,1.53268,803699.0,23573
1473.13,1.51598,799396.0,24366
1476.35,1.51864,795129.0,24088
1479.57,1.511912,790127.0,24310
1482.78,1.50761,784937.0,24391
1486,1.51616,779544.0,23751
1489.2,1.51059,773733.0,23878
1492.4,1.50755,767463.0,23851
1496.67,1.51134,758614.0,23371
1499.86,1.50033,751802.0,23756
1503.04,1.50731,744297.0,23144
1506.23,1.50282,735980.0,23123
1509.41,1.50211,728040.0,22911
1512.58,1.50141,719703.0,22685
1515.75,1.50617,710982.0,22166
1518.92,1.50269,702409.0,22075
1522.08,1.51015,693280.0,21417
1525.24,1.51535,683935.0,20877
1529.44,1.51575,671492.0,20478
1532.59,1.51527,661352.0,20191
1535.73,1.5108,650841.0,20076
1538.87,1.51523,640156.0,19546
1542,1.51817,629036.0,19077
1545.13,1.5126,617445.0,18967
1548.26,1.50858,605527.0,18774
1551.38,1.50533,594133.0,18559
1554.49,1.50731,582894.0,18125
1557.61,1.5053,571271.0,17846
1561.75,1.50038,555940.0,17565
1564.85,1.50138,544812.0,17174
1567.95,1.49191,533402.0,17185
1571.05,1.49723,521915.0,16610
1574.14,1.50274,510788.0,16051
1577.22,1.49871,499607.0,15846
1580.3,1.50134,487992.0,15384
1583.38,1.49965,476265.0,15073
1586.45,1.49019,464618.0,15028
1589.52,1.50781,452782.0,14063
1593.6,1.50022,436897.0,13809
1596.66,1.496756,425551.0,13558
1599.71,1.49377,414191.0,13287
1602.76,1.49907,402799.0,12765
1605.81,1.493578,391352.0,12560
1608.85,1.51342,380811.0,11676
1611.89,1.5071,370076.0,11513
1614.92,1.507,359798.0,11196
1617.95,1.507641,349165.0,10849
1620.97,1.49421,338717.0,10855
1624.99,1.49643,325435.0,10376
1628.01,1.4996,315463.0,9985
1631.02,1.50739,305570.0,9500
1634.02,1.52145,295762.0,8902
1637.02,1.52527,286306.0,8542
1640.02,1.50514,276696.0,8647
1643.01,1.52278,267004.0,8012
1646,1.51757,257531.0,7821
1648.98,1.51601,247817.0,7553
1651.96,1.53161,238547.0,7014
1655.93,1.54166,225092.0,6467
1658.89,1.496664,214425.0,6833
1661.86,1.49996,202241.0,6396
1664.82,1.524837,188046.0,5616
1667.78,1.5415,171566.0,4931
1670.73,1.52185,154101.0,4634
1673.67,1.4939,134892.0,4326
1676.62,1.49975,115325.0,3649
1679.56,1.5121,97255.0,2991
1682.49,1.48304,81017.0,2664
1686.4,1.49151,63571.0,2050
1689.32,1.56364,53566.0,1463
1692.24,1.5824,45493.0,1190
1695.16,1.78459,39217.0,644
1698.07,1.438453,33537.0,1222
1700.97,1.57767,29118.0,770