File: Data/HDPE/HDPE5_Column 1_20211229_164138.csv
***Scan Config Information***,,,,,,,***Reference Scan Information***,,,,,,,,
Scan Config Name:,Column 1,,,,,,Scan Config Name:,Built-in Factory Reference,,,,,,
Scan Config Type:,Slew,Num Section:,1,,,,Scan Config Type:,Slew,Num Section:,1,,,,,
Section Config Type:,Column,,,,,,Section Config Type:,Column,,,,,,,
Start Wavelength (nm):,900,,,,,,Start Wavelength (nm):,900.0,,,,,,
End Wavelength (nm):,1700,,,,,,End Wavelength (nm):,1700.0,,,,,,
Pattern Width (nm):,7.03,,,,,,Pattern Width (nm):,7.03,,,,,,,
Exposure (ms):,0.635,,,,,,Exposure (ms):,0.635,,,,,,,
Digital Resolution:,228,,,,,,Digital Resolution:,228,,,,,,,
Num Repeats:,6,,,,,,Num Repeats:,30,,,,,,,
PGA Gain:,64,,,,,,PGA Gain:,64,,,,,,
System Temp (C):,25.9,,,,,,System Temp (C):,24.17,,,,,,,
Humidity (%):,36.58,,,,,,Humidity (%):,30.0,,,,,,
Battery Capacity (%):,75,,,,,,Lamp Intensity:,2449,,,,,,,
Lamp Intensity:,2530,,,,,,Data Date-Time:,19/12/12T12:44:54,,,,,,
Data Date-Time:,18/1/1T7:10:58,,,,,,,,,,,,,,
Total Measurement Time in sec:,4.396,,,,,,,,,,,,,
***General Information***,,,,,,,***Calibration Coefficients***,,,,,,,,
Model Name:,NIR-S-G1,,,,,,Shift Vector Coefficients:,-8.44101,0.0554567,-8.45244e-05,,,,,
Serial Number:,947R055,95UB122GC0A947R055,,,,,Pixel to Wavelength Coefficients:,1795.87,-0.92014,-0.00023961,,,,,
APP Version:,2.16.7,,,,,,,,,,,,,
TIVA Version:,2.4.4,,,,,,***Lamp Usage * **,,,,,,,,
UUID:,de:67:c:88:67:2c:2d:21,,,,,,Total Time(HH:MM:SS):,11min 33sec ,,,,,,,
Main Board Version:,D,,,,,,***Device/Error Status***,,,,,,,,
Detector Board Version:,B,,,,,,Device Status:,0x00000031,,,,,,
,,,,,,,Error status:,0x00000000,Error Code:,0x00000000000000000000000000000000,,,,,
,,,,,,,,,Error Details:,Not Found,,,,,
***Scan Data***,,,,,,,,,,,,,,,
Wavelength (nm),Absorbance (AU),Reference Signal (unitless),Sample Signal (unitless)
901.841,1.34395,99968.0,4528
905.754,1.36995,108993.0,4650
909.663,1.33904,118185.0,5414
913.568,1.360038,129285.0,5643
917.469,1.392811,143347.0,5802
921.365,1.40315,160437.0,6341
925.257,1.40987,180387.0,7020
929.144,1.39708,201426.0,8073
933.028,1.435681,220694.0,8093
936.906,1.42244,237501.0,8979
942.072,1.41047,256956.0,9986
945.94,1.41749,270636.0,10349
949.805,1.41008,283621.0,11032
953.665,1.39435,296982.0,11978
957.521,1.38889,310733.0,12691
961.373,1.39759,324587.0,12994
965.22,1.38517,339205.0,13973
969.063,1.39029,353669.0,14398
972.902,1.406038,368253.0,14458
976.736,1.40925,382531.0,14908
981.842,1.40349,399901.0,15793
985.666,1.4161,411528.0,15787
989.486,1.41012,422199.0,16421
993.302,1.41149,431172.0,16717
997.113,1.427476,438051.0,16370
1000.92,1.41361,444216.0,17139
1004.72,1.42373,449307.0,16936
1008.52,1.42391,453601.0,17091
1012.32,1.41614,456801.0,17522
1016.11,1.43028,459312.0,17054
1021.15,1.42744,461643.0,17253
1024.93,1.43346,463069.0,17068
1028.71,1.43751,463868.0,16939
1032.48,1.43533,464326.0,17041
1036.24,1.44598,466001.0,16688
1040.01,1.45813,466870.0,16258
1043.77,1.45018,467033.0,16564
1047.52,1.43914,467045.0,16991
1051.27,1.44506,467467.0,16776
1055.01,1.457419,467627.0,16311
1060,1.440097,468351.0,17001
1063.74,1.4645,469050.0,16096
1067.47,1.44397,469880.0,16905
1071.19,1.460857,471228.0,16307
1074.92,1.45236,472558.0,16676
1078.63,1.45254,474087.0,16723
1082.35,1.4617,476569.0,16460
1086.06,1.45362,479445.0,16870
1089.76,1.45716,481756.0,16814
1093.46,1.45468,485147.0,17029
1098.39,1.46992,489755.0,16598
1102.08,1.46323,493535.0,16986
1105.77,1.46343,497426.0,17112
1109.45,1.4724,501308.0,16893
1113.13,1.46464,505725.0,17349
1116.8,1.467002,509421.0,17381
1120.47,1.474167,513217.0,17224
1124.13,1.47189,517470.0,17458
1127.79,1.462647,521690.0,17979
1131.45,1.47287,526099.0,17709
1136.32,1.480839,531329.0,17560
1139.96,1.4798,535549.0,17742
1143.61,1.49394,539808.0,17310
1147.24,1.48696,543900.0,17724
1150.88,1.50285,547908.0,17213
1154.5,1.51262,552170.0,16961
1158.13,1.51518,556773.0,17002
1161.75,1.531239,561098.0,16512
1165.36,1.54467,565898.0,16146
1168.98,1.5474,571300.0,16198
1172.58,1.56156,576602.0,15824
1177.39,1.56572,584320.0,15883
1180.98,1.582182,589396.0,15425
1184.58,1.57992,596143.0,15683
1188.16,1.59804,602955.0,15214
1191.75,1.61603,609704.0,14760
1195.33,1.632738,617215.0,14378
1198.9,1.651343,624471.0,13937
1202.48,1.65803,632472.0,13900
1206.04,1.69143,640381.0,13032
1209.61,1.71788,648161.0,12411
1214.35,1.71959,659999.0,12588
1217.9,1.71341,668609.0,12935
1221.45,1.694318,677405.0,13694
1224.99,1.66783,686281.0,14746
1228.53,1.65639,695317.0,15339
1232.07,1.6205,704063.0,16870
1235.6,1.6154,713007.0,17286
1239.13,1.58504,721330.0,18754
1242.65,1.588329,730030.0,18837
1246.17,1.57313,737591.0,19710
1250.85,1.572071,746809.0,20005
1254.36,1.56636,753336.0,20447
1257.86,1.56574,759907.0,20655
1261.36,1.55177,766538.0,21516
1264.86,1.55285,774802.0,21694
1268.35,1.55021,784025.0,22086
1271.83,1.55275,794336.0,22246
1275.32,1.546724,804198.0,22837
1278.79,1.55148,813836.0,22859
1282.27,1.546665,823595.0,23391
1286.89,1.54454,834533.0,23818
1290.36,1.55105,842581.0,23690
1293.81,1.55132,849301.0,23864
1297.27,1.5558,856026.0,23806
1300.72,1.554932,862498.0,24034
1304.17,1.54799,868068.0,24579
1307.61,1.54783,872869.0,24724
1311.05,1.55393,877616.0,24512
1314.48,1.54337,881872.0,25237
1317.91,1.54585,885520.0,25197
1322.47,1.55044,888917.0,25028
1325.89,1.55513,891687.0,24836
1329.31,1.54901,894001.0,25254
1332.72,1.55469,895438.0,24966
1336.12,1.54751,896641.0,25416
1339.52,1.55059,897974.0,25274
1342.92,1.55829,898777.0,24852
1346.31,1.55829,898783.0,24852
1349.7,1.54962,898350.0,25341
1353.09,1.55881,896784.0,24767
1357.59,1.55769,895293.0,24790
1360.97,1.56994,892755.0,24032
1364.34,1.56914,890430.0,24014
1367.7,1.58188,888504.0,23269
1371.06,1.57802,885825.0,23406
1374.42,1.57944,881046.0,23204
1377.77,1.60124,874030.0,21892
1381.12,1.607101,865751.0,21394
1384.47,1.63903,857799.0,19695
1387.81,1.64688,851759.0,19206
1392.25,1.68768,846500.0,17376
1395.58,1.68525,843622.0,17414
1398.91,1.66659,841228.0,18127
1402.23,1.66171,838489.0,18272
1405.55,1.652377,836065.0,18615
1408.86,1.66707,834396.0,17960
1412.17,1.67912,832187.0,17422
1415.47,1.69244,830123.0,16854
1418.77,1.68651,828244.0,17047
1422.07,1.68873,827314.0,16941
1426.45,1.68462,826435.0,17084
1429.74,1.68959,825475.0,16870
1433.02,1.673557,824938.0,17493
1436.29,1.67593,823959.0,17377
1439.57,1.66811,823822.0,17690
1442.83,1.66427,823184.0,17833
1446.1,1.65977,821953.0,17992
1449.36,1.64908,821135.0,18422
1452.61,1.65532,819413.0,18121
1455.86,1.63591,817492.0,18905
1459.11,1.6465,814862.0,18390
1463.43,1.63553,811075.0,18773
1466.67,1.63034,807671.0,18919
1469.9,1.624242,803699.0,19092
1473.13,1.627658,799396.0,18841
1476.35,1.6154,795129.0,19277
1479.57,1.6058,790127.0,19584
1482.78,1.6073,784937.0,19388
1486,1.598213,779544.0,19662
1489.2,1.61766,773733.0,18661
1492.4,1.59968,767463.0,19292
1496.67,1.60102,758614.0,19011
1499.86,1.59994,751802.0,18887
1503.04,1.61273,744297.0,18156
1506.23,1.59287,735980.0,18793
1509.41,1.604045,728040.0,18118
1512.58,1.59444,719703.0,18311
1515.75,1.6042,710982.0,17687
1518.92,1.60236,702409.0,17548
1522.08,1.601409,693280.0,17358
1525.24,1.605589,683935.0,16960
1529.44,1.59792,671492.0,16948
1532.59,1.59644,661352.0,16749
1535.73,1.61047,650841.0,15959
1538.87,1.61208,640156.0,15639
1542,1.60253,629036.0,15709
1545.13,1.60271,617445.0,15413
1548.26,1.591018,605527.0,15528
1551.38,1.58803,594133.0,15341
1554.49,1.59173,582894.0,14923
1557.61,1.60254,571271.0,14266
1561.75,1.58933,555940.0,14312
1564.85,1.58243,544812.0,14250
1567.95,1.57661,533402.0,14140
1571.05,1.57961,521915.0,13740
1574.14,1.59243,510788.0,13056
1577.22,1.59071,499607.0,12821
1580.3,1.578598,487992.0,12877
1583.38,1.582261,476265.0,12462
1586.45,1.57455,464618.0,12375
1589.52,1.59109,452782.0,11609
1593.6,1.58074,436897.0,11472
1596.66,1.57819,425551.0,11240
1599.71,1.57294,414191.0,11073
1602.76,1.59364,402799.0,10267
1605.81,1.5737,391352.0,10444
1608.85,1.59077,380811.0,9771
1611.89,1.59939,370076.0,9309
1614.92,1.58386,359798.0,9380
1617.95,1.58879,349165.0,9000
1620.97,1.5644,338717.0,9235
1624.99,1.592602,325435.0,8315
1628.01,1.59105,315463.0,8089
1631.02,1.58622,305570.0,7923
1634.02,1.60685,295762.0,7313
1637.02,1.605022,286306.0,7109
1640.02,1.57154,276696.0,7421
1643.01,1.58422,267004.0,6955
1646,1.58024,257531.0,6770
1648.98,1.58911,247817.0,6383
1651.96,1.59047,238547.0,6125
1655.93,1.56554,225092.0,6121
1658.89,1.59099,214425.0,5499
1661.86,1.59966,202241.0,5084
1664.82,1.60263,188046.0,4695
1667.78,1.63849,171566.0,3944
1670.73,1.559008,154101.0,4254
1673.67,1.5652,134892.0,3671
1676.62,1.57225,115325.0,3088
1679.56,1.537201,97255.0,2823
1682.49,1.50426,81017.0,2537
1686.4,1.44229,63571.0,2296
1689.32,1.49921,53566.0,1697
1692.24,1.3896,45493.0,1855
1695.16,1.49345,39217.0,1259
1698.07,1.53519,33537.0,978
1700.97,1.40574,29118.0,1144