File: Data/HDPE/HDPE7_Column 1_20211229_164211.csv
***Scan Config Information***,,,,,,,***Reference Scan Information***,,,,,,,,
Scan Config Name:,Column 1,,,,,,Scan Config Name:,Built-in Factory Reference,,,,,,
Scan Config Type:,Slew,Num Section:,1,,,,Scan Config Type:,Slew,Num Section:,1,,,,,
Section Config Type:,Column,,,,,,Section Config Type:,Column,,,,,,,
Start Wavelength (nm):,900,,,,,,Start Wavelength (nm):,900.0,,,,,,
End Wavelength (nm):,1700,,,,,,End Wavelength (nm):,1700.0,,,,,,
Pattern Width (nm):,7.03,,,,,,Pattern Width (nm):,7.03,,,,,,,
Exposure (ms):,0.635,,,,,,Exposure (ms):,0.635,,,,,,,
Digital Resolution:,228,,,,,,Digital Resolution:,228,,,,,,,
Num Repeats:,6,,,,,,Num Repeats:,30,,,,,,,
PGA Gain:,64,,,,,,PGA Gain:,64,,,,,,
System Temp (C):,26.3,,,,,,System Temp (C):,24.17,,,,,,,
Humidity (%):,36.9,,,,,,Humidity (%):,30.0,,,,,,
Battery Capacity (%):,74,,,,,,Lamp Intensity:,2449,,,,,,,
Lamp Intensity:,2537,,,,,,Data Date-Time:,19/12/12T12:44:54,,,,,,
Data Date-Time:,18/1/1T7:11:27,,,,,,,,,,,,,,
Total Measurement Time in sec:,8.139,,,,,,,,,,,,,
***General Information***,,,,,,,***Calibration Coefficients***,,,,,,,,
Model Name:,NIR-S-G1,,,,,,Shift Vector Coefficients:,-8.44101,0.0554567,-8.45244e-05,,,,,
Serial Number:,947R055,95UB122GC0A947R055,,,,,Pixel to Wavelength Coefficients:,1795.87,-0.92014,-0.00023961,,,,,
APP Version:,2.16.7,,,,,,,,,,,,,
TIVA Version:,2.4.4,,,,,,***Lamp Usage * **,,,,,,,,
UUID:,de:67:c:88:67:2c:2d:21,,,,,,Total Time(HH:MM:SS):,11min 37sec ,,,,,,,
Main Board Version:,D,,,,,,***Device/Error Status***,,,,,,,,
Detector Board Version:,B,,,,,,Device Status:,0x00000031,,,,,,
,,,,,,,Error status:,0x00000000,Error Code:,0x00000000000000000000000000000000,,,,,
,,,,,,,,,Error Details:,Not Found,,,,,
***Scan Data***,,,,,,,,,,,,,,,
Wavelength (nm),Absorbance (AU),Reference Signal (unitless),Sample Signal (unitless)
901.841,1.52725,99968.0,2969
905.754,1.52166,108993.0,3279
909.663,1.50636,118185.0,3683
913.568,1.53984,129285.0,3730
917.469,1.58097,143347.0,3762
921.365,1.56522,160437.0,4366
925.257,1.57154,180387.0,4838
929.144,1.56218,201426.0,5520
933.028,1.60366,220694.0,5497
936.906,1.60195,237501.0,5939
942.072,1.60449,256956.0,6388
945.94,1.57193,270636.0,7252
949.805,1.55992,283621.0,7813
953.665,1.5722,296982.0,7953
957.521,1.57757,310733.0,8219
961.373,1.568183,324587.0,8773
965.22,1.55872,339205.0,9370
969.063,1.55844,353669.0,9776
972.902,1.56312,368253.0,10070
976.736,1.58497,382531.0,9947
981.842,1.556473,399901.0,11104
985.666,1.57801,411528.0,10874
989.486,1.57669,422199.0,11190
993.302,1.57813,431172.0,11390
997.113,1.56303,438051.0,11981
1000.92,1.58947,444216.0,11432
1004.72,1.57376,449307.0,11989
1008.52,1.5845,453601.0,11808
1012.32,1.58429,456801.0,11897
1016.11,1.58173,459312.0,12033
1021.15,1.5888,461643.0,11899
1024.93,1.59046,463069.0,11890
1028.71,1.6159,463868.0,11233
1032.48,1.61144,464326.0,11360
1036.24,1.62514,466001.0,11047
1040.01,1.61157,466870.0,11419
1043.77,1.6187,467033.0,11237
1047.52,1.61089,467045.0,11441
1051.27,1.62287,467467.0,11140
1055.01,1.59979,467627.0,11752
1060,1.61332,468351.0,11409
1063.74,1.62034,469050.0,11243
1067.47,1.6246,469880.0,11153
1071.19,1.63144,471228.0,11010
1074.92,1.63188,472558.0,11030
1078.63,1.62668,474087.0,11199
1082.35,1.62965,476569.0,11181
1086.06,1.63082,479445.0,11218
1089.76,1.6174,481756.0,11626
1093.46,1.62157,485147.0,11596
1098.39,1.62113,489755.0,11718
1102.08,1.6214,493535.0,11801
1105.77,1.62592,497426.0,11771
1109.45,1.65143,501308.0,11186
1113.13,1.63931,505725.0,11604
1116.8,1.62347,509421.0,12123
1120.47,1.63761,513217.0,11822
1124.13,1.63695,517470.0,11938
1127.79,1.63859,521690.0,11990
1131.45,1.63464,526099.0,12202
1136.32,1.63387,531329.0,12345
1139.96,1.661059,535549.0,11688
1143.61,1.65724,539808.0,11885
1147.24,1.65692,543900.0,11984
1150.88,1.66152,547908.0,11945
1154.5,1.676493,552170.0,11630
1158.13,1.70666,556773.0,10940
1161.75,1.70955,561098.0,10952
1165.36,1.72254,565898.0,10720
1168.98,1.72192,571300.0,10838
1172.58,1.73011,576602.0,10734
1177.39,1.74812,584320.0,10436
1180.98,1.77671,589396.0,9856
1184.58,1.74849,596143.0,10638
1188.16,1.77241,602955.0,10183
1191.75,1.77567,609704.0,10220
1195.33,1.78273,617215.0,10179
1198.9,1.81948,624471.0,9463
1202.48,1.84038,632472.0,9134
1206.04,1.86752,640381.0,8688
1209.61,1.87427,648161.0,8658
1214.35,1.89269,659999.0,8450
1217.9,1.87838,668609.0,8847
1221.45,1.86678,677405.0,9206
1224.99,1.843154,686281.0,9848
1228.53,1.7978,695317.0,11076
1232.07,1.79342,704063.0,11329
1235.6,1.79017,713007.0,11559
1239.13,1.76095,721330.0,12508
1242.65,1.75064,730030.0,12963
1246.17,1.7324,737591.0,13659
1250.85,1.73611,746809.0,13712
1254.36,1.733724,753336.0,13908
1257.86,1.719752,759907.0,14488
1261.36,1.71281,766538.0,14850
1264.86,1.71411,774802.0,14965
1268.35,1.71841,784025.0,14994
1271.83,1.72368,794336.0,15008
1275.32,1.71199,804198.0,15609
1278.79,1.70493,813836.0,16055
1282.27,1.71233,823595.0,15973
1286.89,1.6889,834533.0,17082
1290.36,1.709,842581.0,16467
1293.81,1.71674,849301.0,16305
1297.27,1.711412,856026.0,16637
1300.72,1.72243,862498.0,16343
1304.17,1.71405,868068.0,16769
1307.61,1.70005,872869.0,17414
1311.05,1.7076,877616.0,17207
1314.48,1.69692,881872.0,17721
1317.91,1.70747,885520.0,17367
1322.47,1.70347,888917.0,17595
1325.89,1.70611,891687.0,17543
1329.31,1.7043,894001.0,17662
1332.72,1.70677,895438.0,17590
1336.12,1.71077,896641.0,17452
1339.52,1.71028,897974.0,17498
1342.92,1.70955,898777.0,17543
1346.31,1.713605,898783.0,17380
1349.7,1.70638,898350.0,17663
1353.09,1.72255,896784.0,16988
1357.59,1.71821,895293.0,17130
1360.97,1.72261,892755.0,16909
1364.34,1.7191,890430.0,17002
1367.7,1.74033,888504.0,16156
1371.06,1.74407,885825.0,15969
1374.42,1.75346,881046.0,15543
1377.77,1.77144,874030.0,14794
1381.12,1.78078,865751.0,14342
1384.47,1.795715,857799.0,13730
1387.81,1.81232,851759.0,13122
1392.25,1.847217,846500.0,12034
1395.58,1.83791,843622.0,12253
1398.91,1.82585,841228.0,12562
1402.23,1.83996,838489.0,12121
1405.55,1.83535,836065.0,12215
1408.86,1.83263,834396.0,12267
1412.17,1.83493,832187.0,12170
1415.47,1.84962,830123.0,11736
1418.77,1.84521,828244.0,11829
1422.07,1.85962,827314.0,11430
1426.45,1.84503,826435.0,11808
1429.74,1.839009,825475.0,11959
1433.02,1.847679,824938.0,11715
1436.29,1.84594,823959.0,11748
1439.57,1.84484,823822.0,11776
1442.83,1.83182,823184.0,12125
1446.1,1.81655,821953.0,12540
1449.36,1.81387,821135.0,12605
1452.61,1.82286,819413.0,12321
1455.86,1.80978,817492.0,12668
1459.11,1.79915,814862.0,12940
1463.43,1.809553,811075.0,12575
1466.67,1.79209,807671.0,13036
1469.9,1.79819,803699.0,12791
1473.13,1.77073,799396.0,13553
1476.35,1.77301,795129.0,13410
1479.57,1.77897,790127.0,13144
1482.78,1.7664,784937.0,13441
1486,1.7765,779544.0,13042
1489.2,1.77817,773733.0,12895
1492.4,1.75867,767463.0,13378
1496.67,1.76923,758614.0,12906
1499.86,1.76612,751802.0,12882
1503.04,1.76183,744297.0,12880
1506.23,1.7617,735980.0,12740
1509.41,1.76365,728040.0,12546
1512.58,1.76682,719703.0,12312
1515.75,1.77001,710982.0,12074
1518.92,1.76413,702409.0,12091
1522.08,1.77131,693280.0,11738
1525.24,1.77134,683935.0,11579
1529.44,1.7745,671492.0,11286
1532.59,1.77531,661352.0,11095
1535.73,1.7612,650841.0,11279
1538.87,1.76521,640156.0,10992
1542,1.80304,629036.0,9900
1545.13,1.76121,617445.0,10700
1548.26,1.773278,605527.0,10206
1551.38,1.76853,594133.0,10124
1554.49,1.78563,582894.0,9549
1557.61,1.76002,571271.0,9927
1561.75,1.76978,555940.0,9446
1564.85,1.75656,544812.0,9543
1567.95,1.7682,533402.0,9096
1571.05,1.74972,521915.0,9287
1574.14,1.754771,510788.0,8984
1577.22,1.74763,499607.0,8933
1580.3,1.7476,487992.0,8726
1583.38,1.73154,476265.0,8837
1586.45,1.74928,464618.0,8276
1589.52,1.73765,452782.0,8284
1593.6,1.760309,436897.0,7587
1596.66,1.7437,425551.0,7678
1599.71,1.75281,414191.0,7318
1602.76,1.74553,402799.0,7237
1605.81,1.75999,391352.0,6801
1608.85,1.73234,380811.0,7053
1611.89,1.73687,370076.0,6783
1614.92,1.73441,359798.0,6632
1617.95,1.72217,349165.0,6620
1620.97,1.75205,338717.0,5995
1624.99,1.73685,325435.0,5965
1628.01,1.73395,315463.0,5821
1631.02,1.76124,305570.0,5295
1634.02,1.73518,295762.0,5442
1637.02,1.78733,286306.0,4672
1640.02,1.74784,276696.0,4945
1643.01,1.752944,267004.0,4716
1646,1.75868,257531.0,4489
1648.98,1.78188,247817.0,4095
1651.96,1.75869,238547.0,4158
1655.93,1.74213,225092.0,4076
1658.89,1.78684,214425.0,3503
1661.86,1.74525,202241.0,3636
1664.82,1.74676,188046.0,3369
1667.78,1.78188,171566.0,2835
1670.73,1.72526,154101.0,2901
1673.67,1.69224,134892.0,2740
1676.62,1.75293,115325.0,2037
1679.56,1.7288,97255.0,1816
1682.49,1.67103,81017.0,1728
1686.4,1.7796,63571.0,1056
1689.32,1.61062,53566.0,1313
1692.24,1.86346,45493.0,623
1695.16,1.67387,39217.0,831
1698.07,1.6133,33537.0,817
1700.97,1.47918,29118.0,966