File: Data/HDPE/HDPE13_Column 1_20211229_230203.csv
***Scan Config Information***,,,,,,,***Reference Scan Information***,,,,,,,,
Scan Config Name:,Column 1,,,,,,Scan Config Name:,Built-in Factory Reference,,,,,,
Scan Config Type:,Slew,Num Section:,1,,,,Scan Config Type:,Slew,Num Section:,1,,,,,
Section Config Type:,Column,,,,,,Section Config Type:,Column,,,,,,,
Start Wavelength (nm):,900,,,,,,Start Wavelength (nm):,900.0,,,,,,
End Wavelength (nm):,1700,,,,,,End Wavelength (nm):,1700.0,,,,,,
Pattern Width (nm):,7.03,,,,,,Pattern Width (nm):,7.03,,,,,,,
Exposure (ms):,0.635,,,,,,Exposure (ms):,0.635,,,,,,,
Digital Resolution:,228,,,,,,Digital Resolution:,228,,,,,,,
Num Repeats:,6,,,,,,Num Repeats:,30,,,,,,,
PGA Gain:,64,,,,,,PGA Gain:,64,,,,,,
System Temp (C):,19.09,,,,,,System Temp (C):,24.17,,,,,,,
Humidity (%):,38.74,,,,,,Humidity (%):,30.0,,,,,,
Battery Capacity (%):,70,,,,,,Lamp Intensity:,2449,,,,,,,
Lamp Intensity:,2434,,,,,,Data Date-Time:,19/12/12T12:44:54,,,,,,
Data Date-Time:,18/1/1T7:1:2,,,,,,,,,,,,,,
Total Measurement Time in sec:,4.393,,,,,,,,,,,,,
***General Information***,,,,,,,***Calibration Coefficients***,,,,,,,,
Model Name:,NIR-S-G1,,,,,,Shift Vector Coefficients:,-8.44101,0.0554567,-8.45244e-05,,,,,
Serial Number:,947R055,95UB122GC0A947R055,,,,,Pixel to Wavelength Coefficients:,1795.87,-0.92014,-0.00023961,,,,,
APP Version:,2.16.7,,,,,,,,,,,,,
TIVA Version:,2.4.4,,,,,,***Lamp Usage * **,,,,,,,,
UUID:,de:67:c:88:67:2c:2d:21,,,,,,Total Time(HH:MM:SS):,11min 50sec ,,,,,,,
Main Board Version:,D,,,,,,***Device/Error Status***,,,,,,,,
Detector Board Version:,B,,,,,,Device Status:,0x00000031,,,,,,
,,,,,,,Error status:,0x00000000,Error Code:,0x00000000000000000000000000000000,,,,,
,,,,,,,,,Error Details:,Not Found,,,,,
***Scan Data***,,,,,,,,,,,,,,,
Wavelength (nm),Absorbance (AU),Reference Signal (unitless),Sample Signal (unitless)
901.841,1.3179,99968.0,4808
905.754,1.31526,108993.0,5274
909.663,1.29268,118185.0,6024
913.568,1.33405,129285.0,5991
917.469,1.309866,143347.0,7023
921.365,1.33519,160437.0,7415
925.257,1.32475,180387.0,8540
929.144,1.325935,201426.0,9510
933.028,1.33917,220694.0,10107
936.906,1.319218,237501.0,11388
942.072,1.32243,256956.0,12230
945.94,1.32957,270636.0,12671
949.805,1.32479,283621.0,13426
953.665,1.31211,296982.0,14475
957.521,1.31235,310733.0,15137
961.373,1.30865,324587.0,15947
965.22,1.31718,339205.0,16341
969.063,1.32321,353669.0,16803
972.902,1.31136,368253.0,17980
976.736,1.32341,382531.0,18166
981.842,1.321693,399901.0,19066
985.666,1.32343,411528.0,19542
989.486,1.31553,422199.0,20417
993.302,1.33534,431172.0,19921
997.113,1.33172,438051.0,20408
1000.92,1.32389,444216.0,21072
1004.72,1.33513,449307.0,20769
1008.52,1.34251,453601.0,20614
1012.32,1.33547,456801.0,21099
1016.11,1.33105,459312.0,21432
1021.15,1.34372,461643.0,20921
1024.93,1.35031,463069.0,20670
1028.71,1.34513,463868.0,20954
1032.48,1.35182,464326.0,20654
1036.24,1.35763,466001.0,20453
1040.01,1.35323,466870.0,20700
1043.77,1.352455,467033.0,20744
1047.52,1.35608,467045.0,20572
1051.27,1.36556,467467.0,20146
1055.01,1.35591,467627.0,20606
1060,1.35677,468351.0,20597
1063.74,1.35263,469050.0,20825
1067.47,1.35749,469880.0,20630
1071.19,1.36526,471228.0,20322
1074.92,1.35537,472558.0,20849
1078.63,1.34848,474087.0,21251
1082.35,1.35833,476569.0,20883
1086.06,1.36188,479445.0,20838
1089.76,1.36894,481756.0,20601
1093.46,1.36087,485147.0,21135
1098.39,1.36598,489755.0,21086
1102.08,1.36912,493535.0,21096
1105.77,1.36705,497426.0,21364
1109.45,1.36563,501308.0,21601
1113.13,1.37476,505725.0,21338
1116.8,1.36739,509421.0,21862
1120.47,1.37336,513217.0,21724
1124.13,1.37227,517470.0,21959
1127.79,1.366835,521690.0,22417
1131.45,1.36673,526099.0,22612
1136.32,1.37681,531329.0,22313
1139.96,1.38137,535549.0,22255
1143.61,1.380791,539808.0,22462
1147.24,1.3855,543900.0,22388
1150.88,1.38761,547908.0,22444
1154.5,1.3914,552170.0,22422
1158.13,1.40399,556773.0,21963
1161.75,1.408793,561098.0,21890
1165.36,1.42105,565898.0,21463
1168.98,1.44058,571300.0,20715
1172.58,1.43458,576602.0,21198
1177.39,1.43903,584320.0,21263
1180.98,1.446413,589396.0,21086
1184.58,1.45373,596143.0,20971
1188.16,1.46035,602955.0,20890
1191.75,1.47428,609704.0,20457
1195.33,1.48756,617215.0,20085
1198.9,1.50888,624471.0,19348
1202.48,1.5216,632472.0,19030
1206.04,1.545485,640381.0,18237
1209.61,1.54862,648161.0,18326
1214.35,1.555718,659999.0,18358
1217.9,1.5541,668609.0,18667
1221.45,1.54475,677405.0,19324
1224.99,1.53255,686281.0,20135
1228.53,1.504504,695317.0,21761
1232.07,1.48743,704063.0,22918
1235.6,1.4718,713007.0,24060
1239.13,1.45844,721330.0,25101
1242.65,1.44863,730030.0,25984
1246.17,1.44682,737591.0,26363
1250.85,1.43708,746809.0,27298
1254.36,1.43539,753336.0,27644
1257.86,1.43429,759907.0,27956
1261.36,1.43624,766538.0,28073
1264.86,1.43424,774802.0,28507
1268.35,1.425643,784025.0,29423
1271.83,1.42233,794336.0,30038
1275.32,1.42758,804198.0,30046
1278.79,1.42124,813836.0,30853
1282.27,1.42608,823595.0,30877
1286.89,1.42373,834533.0,31457
1290.36,1.42446,842581.0,31707
1293.81,1.42455,849301.0,31953
1297.27,1.42054,856026.0,32505
1300.72,1.42295,862498.0,32569
1304.17,1.42076,868068.0,32945
1307.61,1.42375,872869.0,32900
1311.05,1.42573,877616.0,32929
1314.48,1.42576,881872.0,33086
1317.91,1.419285,885520.0,33722
1322.47,1.42423,888917.0,33468
1325.89,1.42813,891687.0,33272
1329.31,1.43088,894001.0,33148
1332.72,1.42491,895438.0,33661
1336.12,1.42553,896641.0,33658
1339.52,1.43265,897974.0,33160
1342.92,1.42717,898777.0,33611
1346.31,1.42602,898783.0,33700
1349.7,1.43069,898350.0,33324
1353.09,1.43274,896784.0,33109
1357.59,1.4305,895293.0,33225
1360.97,1.43614,892755.0,32703
1364.34,1.44204,890430.0,32178
1367.7,1.44458,888504.0,31921
1371.06,1.44918,885825.0,31490
1374.42,1.4556,881046.0,30860
1377.77,1.4641,874030.0,30021
1381.12,1.476871,865751.0,28875
1384.47,1.49073,857799.0,27711
1387.81,1.50472,851759.0,26644
1392.25,1.524661,846500.0,25291
1395.58,1.53094,843622.0,24843
1398.91,1.52484,841228.0,25123
1402.23,1.51568,838489.0,25575
1405.55,1.5115,836065.0,25748
1408.86,1.515,834396.0,25490
1412.17,1.52626,832187.0,24772
1415.47,1.53486,830123.0,24226
1418.77,1.531802,828244.0,24342
1422.07,1.53862,827314.0,23936
1426.45,1.539138,826435.0,23882
1429.74,1.533643,825475.0,24158
1433.02,1.52777,824938.0,24471
1436.29,1.525253,823959.0,24584
1439.57,1.52402,823822.0,24650
1442.83,1.5234,823184.0,24666
1446.1,1.52152,821953.0,24736
1449.36,1.5172,821135.0,24958
1452.61,1.50487,819413.0,25623
1455.86,1.50535,817492.0,25535
1459.11,1.50663,814862.0,25378
1463.43,1.49685,811075.0,25835
1466.67,1.5004,807671.0,25517
1469.9,1.48357,803699.0,26395
1473.13,1.48479,799396.0,26180
1476.35,1.48575,795129.0,25983
1479.57,1.48052,790127.0,26132
1482.78,1.476285,784937.0,26215
1486,1.47799,779544.0,25933
1489.2,1.47417,773733.0,25967
1492.4,1.47288,767463.0,25833
1496.67,1.47397,758614.0,25471
1499.86,1.467321,751802.0,25632
1503.04,1.46936,744297.0,25257
1506.23,1.46457,735980.0,25252
1509.41,1.464389,728040.0,24990
1512.58,1.46523,719703.0,24656
1515.75,1.465663,710982.0,24333
1518.92,1.46398,702409.0,24133
1522.08,1.4638,693280.0,23829
1525.24,1.47581,683935.0,22867
1529.44,1.4688,671492.0,22816
1532.59,1.4792,661352.0,21940
1535.73,1.471309,650841.0,21987
1538.87,1.47679,640156.0,21355
1542,1.47685,629036.0,20981
1545.13,1.470847,617445.0,20881
1548.26,1.46301,605527.0,20851
1551.38,1.47051,594133.0,20108
1554.49,1.46365,582894.0,20042
1557.61,1.46487,571271.0,19587
1561.75,1.46646,555940.0,18992
1564.85,1.45574,544812.0,19077
1567.95,1.46254,533402.0,18387
1571.05,1.46755,521915.0,17785
1574.14,1.45565,510788.0,17889
1577.22,1.45159,499607.0,17662
1580.3,1.46859,487992.0,16589
1583.38,1.45735,476265.0,16615
1586.45,1.45718,464618.0,16215
1589.52,1.46394,452782.0,15558
1593.6,1.46083,436897.0,15120
1596.66,1.45772,425551.0,14833
1599.71,1.46592,414191.0,14167
1602.76,1.45999,402799.0,13967
1605.81,1.46153,391352.0,13522
1608.85,1.46221,380811.0,13137
1611.89,1.45939,370076.0,12850
1614.92,1.459392,359798.0,12493
1617.95,1.46763,349165.0,11896
1620.97,1.46993,338717.0,11479
1624.99,1.48041,325435.0,10766
1628.01,1.4679,315463.0,10741
1631.02,1.45597,305570.0,10694
1634.02,1.46362,295762.0,10170
1637.02,1.47961,286306.0,9489
1640.02,1.47287,276696.0,9314
1643.01,1.47766,267004.0,8889
1646,1.4905,257531.0,8324
1648.98,1.45862,247817.0,8620
1651.96,1.46541,238547.0,8169
1655.93,1.49178,225092.0,7254
1658.89,1.47358,214425.0,7206
1661.86,1.524042,202241.0,6051
1664.82,1.48468,188046.0,6160
1667.78,1.539826,171566.0,4950
1670.73,1.54962,154101.0,4347
1673.67,1.5494,134892.0,3807
1676.62,1.55004,115325.0,3250
1679.56,1.56417,97255.0,2653
1682.49,1.55408,81017.0,2262
1686.4,1.5575,63571.0,1761
1689.32,1.50023,53566.0,1693
1692.24,1.44602,45493.0,1629
1695.16,1.62639,39217.0,927
1698.07,1.41899,33537.0,1278
1700.97,1.64858,29118.0,654