File: Data/HDPE/HDPE14_Column 1_20211229_230218.csv
***Scan Config Information***,,,,,,,***Reference Scan Information***,,,,,,,,
Scan Config Name:,Column 1,,,,,,Scan Config Name:,Built-in Factory Reference,,,,,,
Scan Config Type:,Slew,Num Section:,1,,,,Scan Config Type:,Slew,Num Section:,1,,,,,
Section Config Type:,Column,,,,,,Section Config Type:,Column,,,,,,,
Start Wavelength (nm):,900,,,,,,Start Wavelength (nm):,900.0,,,,,,
End Wavelength (nm):,1700,,,,,,End Wavelength (nm):,1700.0,,,,,,
Pattern Width (nm):,7.03,,,,,,Pattern Width (nm):,7.03,,,,,,,
Exposure (ms):,0.635,,,,,,Exposure (ms):,0.635,,,,,,,
Digital Resolution:,228,,,,,,Digital Resolution:,228,,,,,,,
Num Repeats:,6,,,,,,Num Repeats:,30,,,,,,,
PGA Gain:,64,,,,,,PGA Gain:,64,,,,,,
System Temp (C):,19.43,,,,,,System Temp (C):,24.17,,,,,,,
Humidity (%):,38.67,,,,,,Humidity (%):,30.0,,,,,,
Battery Capacity (%):,69,,,,,,Lamp Intensity:,2449,,,,,,,
Lamp Intensity:,2438,,,,,,Data Date-Time:,19/12/12T12:44:54,,,,,,
Data Date-Time:,18/1/1T7:1:18,,,,,,,,,,,,,,
Total Measurement Time in sec:,4.121,,,,,,,,,,,,,
***General Information***,,,,,,,***Calibration Coefficients***,,,,,,,,
Model Name:,NIR-S-G1,,,,,,Shift Vector Coefficients:,-8.44101,0.0554567,-8.45244e-05,,,,,
Serial Number:,947R055,95UB122GC0A947R055,,,,,Pixel to Wavelength Coefficients:,1795.87,-0.92014,-0.00023961,,,,,
APP Version:,2.16.7,,,,,,,,,,,,,
TIVA Version:,2.4.4,,,,,,***Lamp Usage * **,,,,,,,,
UUID:,de:67:c:88:67:2c:2d:21,,,,,,Total Time(HH:MM:SS):,11min 53sec ,,,,,,,
Main Board Version:,D,,,,,,***Device/Error Status***,,,,,,,,
Detector Board Version:,B,,,,,,Device Status:,0x00000031,,,,,,
,,,,,,,Error status:,0x00000000,Error Code:,0x00000000000000000000000000000000,,,,,
,,,,,,,,,Error Details:,Not Found,,,,,
***Scan Data***,,,,,,,,,,,,,,,
Wavelength (nm),Absorbance (AU),Reference Signal (unitless),Sample Signal (unitless)
901.841,1.3479,99968.0,4487
905.754,1.30013,108993.0,5461
909.663,1.31131,118185.0,5771
913.568,1.30259,129285.0,6441
917.469,1.294138,143347.0,7282
921.365,1.311321,160437.0,7834
925.257,1.32292,180387.0,8576
929.144,1.33275,201426.0,9362
933.028,1.34619,220694.0,9945
936.906,1.33183,237501.0,11062
942.072,1.30479,256956.0,12737
945.94,1.31818,270636.0,13008
949.805,1.32722,283621.0,13351
953.665,1.31002,296982.0,14545
957.521,1.313008,310733.0,15114
961.373,1.31394,324587.0,15754
965.22,1.31694,339205.0,16350
969.063,1.31907,353669.0,16964
972.902,1.3132,368253.0,17904
976.736,1.32353,382531.0,18161
981.842,1.3227,399901.0,19022
985.666,1.3176,411528.0,19806
989.486,1.334637,422199.0,19538
993.302,1.32666,431172.0,20323
997.113,1.33762,438051.0,20133
1000.92,1.32778,444216.0,20884
1004.72,1.32124,449307.0,21444
1008.52,1.33537,453601.0,20956
1012.32,1.33823,456801.0,20965
1016.11,1.33756,459312.0,21113
1021.15,1.33707,461643.0,21244
1024.93,1.34513,463069.0,20918
1028.71,1.35354,463868.0,20552
1032.48,1.35258,464326.0,20618
1036.24,1.35513,466001.0,20571
1040.01,1.356934,466870.0,20524
1043.77,1.3629,467033.0,20251
1047.52,1.35797,467045.0,20483
1051.27,1.36363,467467.0,20236
1055.01,1.35054,467627.0,20862
1060,1.355168,468351.0,20673
1063.74,1.36206,469050.0,20378
1067.47,1.35983,469880.0,20519
1071.19,1.36184,471228.0,20483
1074.92,1.35985,472558.0,20635
1078.63,1.36444,474087.0,20484
1082.35,1.36046,476569.0,20781
1086.06,1.36584,479445.0,20649
1089.76,1.36684,481756.0,20701
1093.46,1.362745,485147.0,21044
1098.39,1.36397,489755.0,21184
1102.08,1.37007,493535.0,21050
1105.77,1.3668,497426.0,21376
1109.45,1.3668,501308.0,21543
1113.13,1.37568,505725.0,21293
1116.8,1.371639,509421.0,21649
1120.47,1.37508,513217.0,21638
1124.13,1.36806,517470.0,22173
1127.79,1.37116,521690.0,22195
1131.45,1.38031,526099.0,21916
1136.32,1.38415,531329.0,21939
1139.96,1.38227,535549.0,22209
1143.61,1.38581,539808.0,22204
1147.24,1.38792,543900.0,22264
1150.88,1.38693,547908.0,22479
1154.5,1.40334,552170.0,21814
1158.13,1.4086,556773.0,21731
1161.75,1.42591,561098.0,21044
1165.36,1.43639,565898.0,20718
1168.98,1.43413,571300.0,21025
1172.58,1.43319,576602.0,21266
1177.39,1.44087,584320.0,21173
1180.98,1.4558,589396.0,20635
1184.58,1.4615,596143.0,20599
1188.16,1.46429,602955.0,20701
1191.75,1.48015,609704.0,20182
1195.33,1.4898,617215.0,19982
1198.9,1.51025,624471.0,19287
1202.48,1.529014,632472.0,18708
1206.04,1.54979,640381.0,18057
1209.61,1.55888,648161.0,17898
1214.35,1.56458,659999.0,17987
1217.9,1.56026,668609.0,18404
1221.45,1.55439,677405.0,18900
1224.99,1.53149,686281.0,20184
1228.53,1.50482,695317.0,21745
1232.07,1.49371,704063.0,22589
1235.6,1.4791,713007.0,23659
1239.13,1.46819,721330.0,24544
1242.65,1.45471,730030.0,25623
1246.17,1.453026,737591.0,25989
1250.85,1.4428,746809.0,26941
1254.36,1.43946,753336.0,27386
1257.86,1.43916,759907.0,27644
1261.36,1.43167,766538.0,28370
1264.86,1.42882,774802.0,28865
1268.35,1.43288,784025.0,28937
1271.83,1.430978,794336.0,29446
1275.32,1.42714,804198.0,30076
1278.79,1.43151,813836.0,30132
1282.27,1.42573,823595.0,30902
1286.89,1.42843,834533.0,31118
1290.36,1.43023,842581.0,31288
1293.81,1.43053,849301.0,31516
1297.27,1.4297,856026.0,31826
1300.72,1.42404,862498.0,32488
1304.17,1.4224,868068.0,32821
1307.61,1.42936,872869.0,32478
1311.05,1.42412,877616.0,33051
1314.48,1.42701,881872.0,32991
1317.91,1.42593,885520.0,33210
1322.47,1.43136,888917.0,32923
1325.89,1.42579,891687.0,33452
1329.31,1.43059,894001.0,33170
1332.72,1.43112,895438.0,33183
1336.12,1.42773,896641.0,33488
1339.52,1.43005,897974.0,33359
1342.92,1.42793,898777.0,33552
1346.31,1.43277,898783.0,33181
1349.7,1.4346,898350.0,33025
1353.09,1.43275,896784.0,33108
1357.59,1.43554,895293.0,32842
1360.97,1.43661,892755.0,32668
1364.34,1.44399,890430.0,32034
1367.7,1.44607,888504.0,31812
1371.06,1.45767,885825.0,30880
1374.42,1.45797,881046.0,30692
1377.77,1.46839,874030.0,29726
1381.12,1.47755,865751.0,28830
1384.47,1.49158,857799.0,27657
1387.81,1.51063,851759.0,26284
1392.25,1.53021,846500.0,24970
1395.58,1.53553,843622.0,24582
1398.91,1.5241,841228.0,25166
1402.23,1.51068,838489.0,25871
1405.55,1.52112,836065.0,25184
1408.86,1.5251,834396.0,24904
1412.17,1.53458,832187.0,24302
1415.47,1.54169,830123.0,23848
1418.77,1.54735,828244.0,23486
1422.07,1.53645,827314.0,24056
1426.45,1.53645,826435.0,24030
1429.74,1.53151,825475.0,24277
1433.02,1.52948,824938.0,24375
1436.29,1.53591,823959.0,23988
1439.57,1.53454,823822.0,24060
1442.83,1.52667,823184.0,24481
1446.1,1.52261,821953.0,24674
1449.36,1.51293,821135.0,25205
1452.61,1.51694,819413.0,24921
1455.86,1.511376,817492.0,25183
1459.11,1.50444,814862.0,25506
1463.43,1.5087,811075.0,25140
1466.67,1.50221,807671.0,25411
1469.9,1.49679,803699.0,25604
1473.13,1.49529,799396.0,25555
1476.35,1.485147,795129.0,26019
1479.57,1.48505,790127.0,25861
1482.78,1.48467,784937.0,25714
1486,1.48386,779544.0,25585
1489.2,1.473835,773733.0,25987
1492.4,1.47583,767463.0,25658
1496.67,1.47587,758614.0,25360
1499.86,1.47555,751802.0,25151
1503.04,1.48247,744297.0,24506
1506.23,1.475102,735980.0,24647
1509.41,1.47847,728040.0,24193
1512.58,1.46788,719703.0,24506
1515.75,1.47757,710982.0,23675
1518.92,1.47667,702409.0,23438
1522.08,1.48389,693280.0,22752
1525.24,1.47524,683935.0,22897
1529.44,1.48186,671492.0,22140
1532.59,1.48385,661352.0,21706
1535.73,1.48304,650841.0,21401
1538.87,1.48374,640156.0,21016
1542,1.48441,629036.0,20619
1545.13,1.48295,617445.0,20307
1548.26,1.47498,605527.0,20284
1551.38,1.47285,594133.0,20000
1554.49,1.47678,582894.0,19445
1557.61,1.47063,571271.0,19329
1561.75,1.46799,555940.0,18925
1564.85,1.468,544812.0,18546
1567.95,1.47326,533402.0,17939
1571.05,1.46601,521915.0,17848
1574.14,1.471,510788.0,17268
1577.22,1.47162,499607.0,16866
1580.3,1.46768,487992.0,16624
1583.38,1.46579,476265.0,16295
1586.45,1.46545,464618.0,15909
1589.52,1.46987,452782.0,15347
1593.6,1.47153,436897.0,14752
1596.66,1.45837,425551.0,14811
1599.71,1.4605,414191.0,14345
1602.76,1.47241,402799.0,13573
1605.81,1.466014,391352.0,13383
1608.85,1.46904,380811.0,12932
1611.89,1.45797,370076.0,12892
1614.92,1.45086,359798.0,12741
1617.95,1.45493,349165.0,12249
1620.97,1.46628,338717.0,11576
1624.99,1.46259,325435.0,11217
1628.01,1.47368,315463.0,10599
1631.02,1.468997,305570.0,10378
1634.02,1.45946,295762.0,10268
1637.02,1.46229,286306.0,9875
1640.02,1.46465,276696.0,9492
1643.01,1.4731,267004.0,8983
1646,1.46758,257531.0,8775
1648.98,1.48495,247817.0,8113
1651.96,1.47901,238547.0,7917
1655.93,1.4747,225092.0,7545
1658.89,1.49724,214425.0,6824
1661.86,1.45997,202241.0,7013
1664.82,1.4915,188046.0,6064
1667.78,1.52703,171566.0,5098
1670.73,1.5171,154101.0,4685
1673.67,1.4915,134892.0,4350
1676.62,1.5361,115325.0,3356
1679.56,1.62074,97255.0,2329
1682.49,1.60842,81017.0,1996
1686.4,1.58132,63571.0,1667
1689.32,1.49488,53566.0,1714
1692.24,1.563823,45493.0,1242
1695.16,1.55366,39217.0,1096
1698.07,1.44562,33537.0,1202
1700.97,1.66139,29118.0,635