File: Data/LDPE/LDPE15_Column 1_20211230_112504.csv
***Scan Config Information***,,,,,,,***Reference Scan Information***,,,,,,,,
Scan Config Name:,Column 1,,,,,,Scan Config Name:,Built-in Factory Reference,,,,,,
Scan Config Type:,Slew,Num Section:,1,,,,Scan Config Type:,Slew,Num Section:,1,,,,,
Section Config Type:,Column,,,,,,Section Config Type:,Column,,,,,,,
Start Wavelength (nm):,900,,,,,,Start Wavelength (nm):,900.0,,,,,,
End Wavelength (nm):,1700,,,,,,End Wavelength (nm):,1700.0,,,,,,
Pattern Width (nm):,7.03,,,,,,Pattern Width (nm):,7.03,,,,,,,
Exposure (ms):,0.635,,,,,,Exposure (ms):,0.635,,,,,,,
Digital Resolution:,228,,,,,,Digital Resolution:,228,,,,,,,
Num Repeats:,6,,,,,,Num Repeats:,30,,,,,,,
PGA Gain:,64,,,,,,PGA Gain:,64,,,,,,
System Temp (C):,23.26,,,,,,System Temp (C):,24.17,,,,,,,
Humidity (%):,40.65,,,,,,Humidity (%):,30.0,,,,,,
Battery Capacity (%):,60,,,,,,Lamp Intensity:,2449,,,,,,,
Lamp Intensity:,2495,,,,,,Data Date-Time:,19/12/12T12:44:54,,,,,,
Data Date-Time:,18/1/1T7:4:23,,,,,,,,,,,,,,
Total Measurement Time in sec:,4.342,,,,,,,,,,,,,
***General Information***,,,,,,,***Calibration Coefficients***,,,,,,,,
Model Name:,NIR-S-G1,,,,,,Shift Vector Coefficients:,-8.44101,0.0554567,-8.45244e-05,,,,,
Serial Number:,947R055,95UB122GC0A947R055,,,,,Pixel to Wavelength Coefficients:,1795.87,-0.92014,-0.00023961,,,,,
APP Version:,2.16.7,,,,,,,,,,,,,
TIVA Version:,2.4.4,,,,,,***Lamp Usage * **,,,,,,,,
UUID:,de:67:c:88:67:2c:2d:21,,,,,,Total Time(HH:MM:SS):,12min 39sec ,,,,,,,
Main Board Version:,D,,,,,,***Device/Error Status***,,,,,,,,
Detector Board Version:,B,,,,,,Device Status:,0x00000031,,,,,,
,,,,,,,Error status:,0x00000000,Error Code:,0x00000000000000000000000000000000,,,,,
,,,,,,,,,Error Details:,Not Found,,,,,
***Scan Data***,,,,,,,,,,,,,,,
Wavelength (nm),Absorbance (AU),Reference Signal (unitless),Sample Signal (unitless)
901.841,1.436736,99968.0,3657
905.754,1.53634,108993.0,3170
909.663,1.48116,118185.0,3903
913.568,1.46495,129285.0,4432
917.469,1.49278,143347.0,4609
921.365,1.48788,160437.0,5217
925.257,1.51624,180387.0,5495
929.144,1.50956,201426.0,6231
933.028,1.47721,220694.0,7355
936.906,1.49149,237501.0,7659
942.072,1.49982,256956.0,8129
945.94,1.49532,270636.0,8651
949.805,1.47689,283621.0,9459
953.665,1.49245,296982.0,9556
957.521,1.49623,310733.0,9912
961.373,1.46943,324587.0,11013
965.22,1.48132,339205.0,11198
969.063,1.47741,353669.0,11781
972.902,1.481713,368253.0,12146
976.736,1.49181,382531.0,12327
981.842,1.48784,399901.0,13005
985.666,1.48668,411528.0,13419
989.486,1.50623,422199.0,13161
993.302,1.5125,431172.0,13248
997.113,1.50161,438051.0,13801
1000.92,1.5043,444216.0,13909
1004.72,1.5057,449307.0,14023
1008.52,1.49991,453601.0,14347
1012.32,1.50182,456801.0,14385
1016.11,1.5149,459312.0,14035
1021.15,1.50381,461643.0,14471
1024.93,1.52076,463069.0,13960
1028.71,1.52329,463868.0,13903
1032.48,1.51705,464326.0,14118
1036.24,1.50282,466001.0,14641
1040.01,1.518102,466870.0,14161
1043.77,1.525116,467033.0,13939
1047.52,1.53144,467045.0,13738
1051.27,1.54197,467467.0,13421
1055.01,1.53217,467627.0,13732
1060,1.53376,468351.0,13703
1063.74,1.54198,469050.0,13466
1067.47,1.53794,469880.0,13616
1071.19,1.53632,471228.0,13706
1074.92,1.54515,472558.0,13468
1078.63,1.53993,474087.0,13675
1082.35,1.54619,476569.0,13550
1086.06,1.55441,479445.0,13376
1089.76,1.54273,481756.0,13807
1093.46,1.53334,485147.0,14208
1098.39,1.546683,489755.0,13909
1102.08,1.5429,493535.0,14139
1105.77,1.552528,497426.0,13938
1109.45,1.55302,501308.0,14031
1113.13,1.56052,505725.0,13912
1116.8,1.55666,509421.0,14139
1120.47,1.55579,513217.0,14273
1124.13,1.55126,517470.0,14542
1127.79,1.57194,521690.0,13979
1131.45,1.56604,526099.0,14290
1136.32,1.57636,531329.0,14093
1139.96,1.564863,535549.0,14586
1143.61,1.57063,539808.0,14508
1147.24,1.584824,543900.0,14148
1150.88,1.590321,547908.0,14073
1154.5,1.599058,552170.0,13900
1158.13,1.59949,556773.0,14002
1161.75,1.60016,561098.0,14089
1165.36,1.60841,565898.0,13942
1168.98,1.60731,571300.0,14111
1172.58,1.62482,576602.0,13679
1177.39,1.62674,584320.0,13801
1180.98,1.64428,589396.0,13370
1184.58,1.64303,596143.0,13562
1188.16,1.66166,602955.0,13141
1191.75,1.67017,609704.0,13030
1195.33,1.6919,617215.0,12547
1198.9,1.697284,624471.0,12538
1202.48,1.72905,632472.0,11803
1206.04,1.73952,640381.0,11666
1209.61,1.76656,648161.0,11095
1214.35,1.73848,659999.0,12052
1217.9,1.76489,668609.0,11489
1221.45,1.74395,677405.0,12215
1224.99,1.70668,686281.0,13484
1228.53,1.69017,695317.0,14191
1232.07,1.66428,704063.0,15252
1235.6,1.65769,713007.0,15682
1239.13,1.63926,721330.0,16553
1242.65,1.63767,730030.0,16814
1246.17,1.63921,737591.0,16928
1250.85,1.61941,746809.0,17939
1254.36,1.62613,753336.0,17818
1257.86,1.61251,759907.0,18546
1261.36,1.60862,766538.0,18876
1264.86,1.61448,774802.0,18824
1268.35,1.61837,784025.0,18878
1271.83,1.60547,794336.0,19703
1275.32,1.60092,804198.0,20158
1278.79,1.59887,813836.0,20496
1282.27,1.60345,823595.0,20524
1286.89,1.60531,834533.0,20708
1290.36,1.59983,842581.0,21173
1293.81,1.61054,849301.0,20822
1297.27,1.60392,856026.0,21309
1300.72,1.59571,862498.0,21880
1304.17,1.60557,868068.0,21527
1307.61,1.60112,872869.0,21869
1311.05,1.60658,877616.0,21713
1314.48,1.6035,881872.0,21974
1317.91,1.604756,885520.0,22001
1322.47,1.60223,888917.0,22214
1325.89,1.60384,891687.0,22201
1329.31,1.59879,894001.0,22519
1332.72,1.61155,895438.0,21902
1336.12,1.60055,896641.0,22494
1339.52,1.604414,897974.0,22328
1342.92,1.60012,898777.0,22570
1346.31,1.60962,898783.0,22082
1349.7,1.60462,898350.0,22327
1353.09,1.61497,896784.0,21763
1357.59,1.60897,895293.0,22029
1360.97,1.6163,892755.0,21599
1364.34,1.61702,890430.0,21507
1367.7,1.63068,888504.0,20796
1371.06,1.627763,885825.0,20873
1374.42,1.63454,881046.0,20439
1377.77,1.64737,874030.0,19686
1381.12,1.64854,865751.0,19447
1384.47,1.67291,857799.0,18217
1387.81,1.68505,851759.0,17590
1392.25,1.71138,846500.0,16453
1395.58,1.7213,843622.0,16027
1398.91,1.70144,841228.0,16729
1402.23,1.68893,838489.0,17162
1405.55,1.69895,836065.0,16722
1408.86,1.70132,834396.0,16598
1412.17,1.71567,832187.0,16016
1415.47,1.722607,830123.0,15723
1418.77,1.7346,828244.0,15260
1422.07,1.71677,827314.0,15882
1426.45,1.70826,826435.0,16179
1429.74,1.70676,825475.0,16216
1433.02,1.71095,824938.0,16050
1436.29,1.71132,823959.0,16017
1439.57,1.69045,823822.0,16803
1442.83,1.68479,823184.0,17010
1446.1,1.69024,821953.0,16773
1449.36,1.68553,821135.0,16939
1452.61,1.68551,819413.0,16904
1455.86,1.67544,817492.0,17260
1459.11,1.67745,814862.0,17125
1463.43,1.67152,811075.0,17280
1466.67,1.66103,807671.0,17628
1469.9,1.65079,803699.0,17960
1473.13,1.65863,799396.0,17544
1476.35,1.649335,795129.0,17828
1479.57,1.64523,790127.0,17884
1482.78,1.64725,784937.0,17684
1486,1.64387,779544.0,17700
1489.2,1.63571,773733.0,17901
1492.4,1.63449,767463.0,17806
1496.67,1.64085,758614.0,17345
1499.86,1.641966,751802.0,17145
1503.04,1.64148,744297.0,16993
1506.23,1.63586,735980.0,17022
1509.41,1.63038,728040.0,17052
1512.58,1.64276,719703.0,16383
1515.75,1.64267,710982.0,16188
1518.92,1.62255,702409.0,16751
1522.08,1.63048,693280.0,16234
1525.24,1.62743,683935.0,16128
1529.44,1.63915,671492.0,15413
1532.59,1.63478,661352.0,15334
1535.73,1.63747,650841.0,14997
1538.87,1.64178,640156.0,14605
1542,1.62959,629036.0,14760
1545.13,1.63293,617445.0,14377
1548.26,1.6292,605527.0,14221
1551.38,1.62362,594133.0,14134
1554.49,1.62276,582894.0,13894
1557.61,1.61489,571271.0,13866
1561.75,1.62515,555940.0,13179
1564.85,1.61551,544812.0,13205
1567.95,1.62209,533402.0,12734
1571.05,1.60856,521915.0,12854
1574.14,1.61622,510788.0,12360
1577.22,1.61387,499607.0,12155
1580.3,1.61697,487992.0,11788
1583.38,1.62201,476265.0,11372
1586.45,1.619938,464618.0,11147
1589.52,1.61958,452782.0,10872
1593.6,1.62284,436897.0,10412
1596.66,1.61709,425551.0,10277
1599.71,1.6047,414191.0,10292
1602.76,1.59999,402799.0,10118
1605.81,1.61727,391352.0,9447
1608.85,1.60221,380811.0,9517
1611.89,1.62017,370076.0,8874
1614.92,1.62141,359798.0,8603
1617.95,1.60546,349165.0,8661
1620.97,1.59257,338717.0,8655
1624.99,1.62807,325435.0,7663
1628.01,1.62244,315463.0,7525
1631.02,1.60918,305570.0,7515
1634.02,1.62368,295762.0,7035
1637.02,1.5995,286306.0,7200
1640.02,1.60873,276696.0,6812
1643.01,1.64584,267004.0,6035
1646,1.6209,257531.0,6165
1648.98,1.60469,247817.0,6158
1651.96,1.61243,238547.0,5823
1655.93,1.619243,225092.0,5409
1658.89,1.61319,214425.0,5225
1661.86,1.58728,202241.0,5231
1664.82,1.64312,188046.0,4277
1667.78,1.63031,171566.0,4019
1670.73,1.57949,154101.0,4058
1673.67,1.60261,134892.0,3368
1676.62,1.66364,115325.0,2502
1679.56,1.67573,97255.0,2052
1682.49,1.61499,81017.0,1966
1686.4,1.60104,63571.0,1593
1689.32,1.57083,53566.0,1439
1692.24,1.80303,45493.0,716
1695.16,1.5974,39217.0,991
1698.07,1.7027,33537.0,665
1700.97,2.20409,29118.0,182