File: Data/LDPE/LDPE5_Column 1_20211230_112236.csv
***Scan Config Information***,,,,,,,***Reference Scan Information***,,,,,,,,
Scan Config Name:,Column 1,,,,,,Scan Config Name:,Built-in Factory Reference,,,,,,
Scan Config Type:,Slew,Num Section:,1,,,,Scan Config Type:,Slew,Num Section:,1,,,,,
Section Config Type:,Column,,,,,,Section Config Type:,Column,,,,,,,
Start Wavelength (nm):,900,,,,,,Start Wavelength (nm):,900.0,,,,,,
End Wavelength (nm):,1700,,,,,,End Wavelength (nm):,1700.0,,,,,,
Pattern Width (nm):,7.03,,,,,,Pattern Width (nm):,7.03,,,,,,,
Exposure (ms):,0.635,,,,,,Exposure (ms):,0.635,,,,,,,
Digital Resolution:,228,,,,,,Digital Resolution:,228,,,,,,,
Num Repeats:,6,,,,,,Num Repeats:,30,,,,,,,
PGA Gain:,64,,,,,,PGA Gain:,64,,,,,,
System Temp (C):,20.8,,,,,,System Temp (C):,24.17,,,,,,,
Humidity (%):,40.97,,,,,,Humidity (%):,30.0,,,,,,
Battery Capacity (%):,63,,,,,,Lamp Intensity:,2449,,,,,,,
Lamp Intensity:,2459,,,,,,Data Date-Time:,19/12/12T12:44:54,,,,,,
Data Date-Time:,18/1/1T7:1:55,,,,,,,,,,,,,,
Total Measurement Time in sec:,4.421,,,,,,,,,,,,,
***General Information***,,,,,,,***Calibration Coefficients***,,,,,,,,
Model Name:,NIR-S-G1,,,,,,Shift Vector Coefficients:,-8.44101,0.0554567,-8.45244e-05,,,,,
Serial Number:,947R055,95UB122GC0A947R055,,,,,Pixel to Wavelength Coefficients:,1795.87,-0.92014,-0.00023961,,,,,
APP Version:,2.16.7,,,,,,,,,,,,,
TIVA Version:,2.4.4,,,,,,***Lamp Usage * **,,,,,,,,
UUID:,de:67:c:88:67:2c:2d:21,,,,,,Total Time(HH:MM:SS):,12min 17sec ,,,,,,,
Main Board Version:,D,,,,,,***Device/Error Status***,,,,,,,,
Detector Board Version:,B,,,,,,Device Status:,0x00000031,,,,,,
,,,,,,,Error status:,0x00000000,Error Code:,0x00000000000000000000000000000000,,,,,
,,,,,,,,,Error Details:,Not Found,,,,,
***Scan Data***,,,,,,,,,,,,,,,
Wavelength (nm),Absorbance (AU),Reference Signal (unitless),Sample Signal (unitless)
901.841,1.59349,99968.0,2549
905.754,1.6721,108993.0,2319
909.663,1.56565,118185.0,3213
913.568,1.63602,129285.0,2989
917.469,1.57342,143347.0,3828
921.365,1.62529,160437.0,3802
925.257,1.66259,180387.0,3923
929.144,1.63285,201426.0,4691
933.028,1.62604,220694.0,5221
936.906,1.62724,237501.0,5603
942.072,1.61162,256956.0,6284
945.94,1.62539,270636.0,6412
949.805,1.60044,283621.0,7117
953.665,1.60692,296982.0,7342
957.521,1.62216,310733.0,7417
961.373,1.61846,324587.0,7814
965.22,1.61548,339205.0,8222
969.063,1.63057,353669.0,8280
972.902,1.61876,368253.0,8859
976.736,1.63784,382531.0,8807
981.842,1.61264,399901.0,9757
985.666,1.6305,411528.0,9636
989.486,1.62244,422199.0,10071
993.302,1.61033,431172.0,10576
997.113,1.63604,438051.0,10127
1000.92,1.6506,444216.0,9931
1004.72,1.63773,449307.0,10347
1008.52,1.63524,453601.0,10506
1012.32,1.63091,456801.0,10686
1016.11,1.65955,459312.0,10059
1021.15,1.64979,461643.0,10340
1024.93,1.65138,463069.0,10334
1028.71,1.66683,463868.0,9990
1032.48,1.64448,464326.0,10528
1036.24,1.658681,466001.0,10226
1040.01,1.643276,466870.0,10615
1043.77,1.66533,467033.0,10093
1047.52,1.66324,467045.0,10142
1051.27,1.65155,467467.0,10428
1055.01,1.66713,467627.0,10064
1060,1.66988,468351.0,10016
1063.74,1.67924,469050.0,9817
1067.47,1.69062,469880.0,9580
1071.19,1.67258,471228.0,10015
1074.92,1.67415,472558.0,10007
1078.63,1.68,474087.0,9905
1082.35,1.68975,476569.0,9736
1086.06,1.69231,479445.0,9737
1089.76,1.69049,481756.0,9825
1093.46,1.68138,485147.0,10104
1098.39,1.69299,489755.0,9931
1102.08,1.68259,493535.0,10250
1105.77,1.69912,497426.0,9945
1109.45,1.72823,501308.0,9373
1113.13,1.69417,505725.0,10227
1116.8,1.69593,509421.0,10260
1120.47,1.70844,513217.0,10043
1124.13,1.70712,517470.0,10157
1127.79,1.71202,521690.0,10125
1131.45,1.71375,526099.0,10170
1136.32,1.70946,531329.0,10373
1139.96,1.72919,535549.0,9991
1143.61,1.72723,539808.0,10116
1147.24,1.73107,543900.0,10103
1150.88,1.72824,547908.0,10244
1154.5,1.724497,552170.0,10413
1158.13,1.752242,556773.0,9850
1161.75,1.762267,561098.0,9700
1165.36,1.77896,565898.0,9414
1168.98,1.78429,571300.0,9388
1172.58,1.78411,576602.0,9479
1177.39,1.78815,584320.0,9517
1180.98,1.78149,589396.0,9748
1184.58,1.82072,596143.0,9008
1188.16,1.81654,602955.0,9199
1191.75,1.82934,609704.0,9032
1195.33,1.84947,617215.0,8729
1198.9,1.88196,624471.0,8195
1202.48,1.88186,632472.0,8302
1206.04,1.90618,640381.0,7948
1209.61,1.95333,648161.0,7217
1214.35,1.92241,659999.0,7891
1217.9,1.92273,668609.0,7988
1221.45,1.9074,677405.0,8384
1224.99,1.88005,686281.0,9046
1228.53,1.85153,695317.0,9787
1232.07,1.83782,704063.0,10228
1235.6,1.82318,713007.0,10713
1239.13,1.79334,721330.0,11609
1242.65,1.78268,730030.0,12041
1246.17,1.79586,737591.0,11802
1250.85,1.78596,746809.0,12225
1254.36,1.78751,753336.0,12288
1257.86,1.77372,759907.0,12795
1261.36,1.76673,766538.0,13116
1264.86,1.77525,774802.0,13000
1268.35,1.77182,784025.0,13259
1271.83,1.759559,794336.0,13818
1275.32,1.76004,804198.0,13974
1278.79,1.76147,813836.0,14095
1282.27,1.76236,823595.0,14235
1286.89,1.75339,834533.0,14725
1290.36,1.76275,842581.0,14550
1293.81,1.75965,849301.0,14771
1297.27,1.75886,856026.0,14915
1300.72,1.75785,862498.0,15063
1304.17,1.75531,868068.0,15249
1307.61,1.76014,872869.0,15164
1311.05,1.75146,877616.0,15554
1314.48,1.760856,881872.0,15295
1317.91,1.76072,885520.0,15363
1322.47,1.75875,888917.0,15492
1325.89,1.75348,891687.0,15730
1329.31,1.74956,894001.0,15914
1332.72,1.744428,895438.0,16129
1336.12,1.76465,896641.0,15416
1339.52,1.75461,897974.0,15800
1342.92,1.74986,898777.0,15988
1346.31,1.75218,898783.0,15903
1349.7,1.74578,898350.0,16131
1353.09,1.76885,896784.0,15270
1357.59,1.75328,895293.0,15801
1360.97,1.761242,892755.0,15470
1364.34,1.761065,890430.0,15436
1367.7,1.77679,888504.0,14855
1371.06,1.76636,885825.0,15170
1374.42,1.78038,881046.0,14609
1377.77,1.78826,874030.0,14232
1381.12,1.80951,865751.0,13424
1384.47,1.81163,857799.0,13236
1387.81,1.83763,851759.0,12379
1392.25,1.84405,846500.0,12122
1395.58,1.86818,843622.0,11428
1398.91,1.84533,841228.0,12011
1402.23,1.8496,838489.0,11855
1405.55,1.83624,836065.0,12190
1408.86,1.85452,834396.0,11664
1412.17,1.84376,832187.0,11925
1415.47,1.86346,830123.0,11368
1418.77,1.86133,828244.0,11398
1422.07,1.87506,827314.0,11031
1426.45,1.87032,826435.0,11140
1429.74,1.8683,825475.0,11179
1433.02,1.84458,824938.0,11799
1436.29,1.85336,823959.0,11549
1439.57,1.84609,823822.0,11742
1442.83,1.82964,823184.0,12186
1446.1,1.83704,821953.0,11962
1449.36,1.820293,821135.0,12420
1452.61,1.82786,819413.0,12180
1455.86,1.81752,817492.0,12444
1459.11,1.81896,814862.0,12363
1463.43,1.80907,811075.0,12589
1466.67,1.81213,807671.0,12448
1469.9,1.78859,803699.0,13077
1473.13,1.79725,799396.0,12750
1476.35,1.78891,795129.0,12928
1479.57,1.77394,790127.0,13297
1482.78,1.7925,784937.0,12657
1486,1.789,779544.0,12672
1489.2,1.77568,773733.0,12969
1492.4,1.77568,767463.0,12864
1496.67,1.76491,758614.0,13035
1499.86,1.76872,751802.0,12805
1503.04,1.774246,744297.0,12517
1506.23,1.78761,735980.0,12002
1509.41,1.76842,728040.0,12409
1512.58,1.78435,719703.0,11825
1515.75,1.76918,710982.0,12097
1518.92,1.7597,702409.0,12215
1522.08,1.78618,693280.0,11343
1525.24,1.77146,683935.0,11576
1529.44,1.75874,671492.0,11703
1532.59,1.77625,661352.0,11071
1535.73,1.76074,650841.0,11291
1538.87,1.77419,640156.0,10767
1542,1.78181,629036.0,10396
1545.13,1.77641,617445.0,10332
1548.26,1.781656,605527.0,10011
1551.38,1.7843,594133.0,9763
1554.49,1.77105,582894.0,9875
1557.61,1.78841,571271.0,9299
1561.75,1.7648,555940.0,9555
1564.85,1.75875,544812.0,9495
1567.95,1.76232,533402.0,9220
1571.05,1.74963,521915.0,9289
1574.14,1.75924,510788.0,8892
1577.22,1.76458,499607.0,8591
1580.3,1.75064,487992.0,8665
1583.38,1.76345,476265.0,8211
1586.45,1.74453,464618.0,8367
1589.52,1.75634,452782.0,7935
1593.6,1.75457,436897.0,7688
1596.66,1.75866,425551.0,7418
1599.71,1.76247,414191.0,7157
1602.76,1.76479,402799.0,6923
1605.81,1.77342,391352.0,6594
1608.85,1.73904,380811.0,6945
1611.89,1.77012,370076.0,6283
1614.92,1.75665,359798.0,6301
1617.95,1.75635,349165.0,6119
1620.97,1.76783,338717.0,5781
1624.99,1.73824,325435.0,5946
1628.01,1.769136,315463.0,5368
1631.02,1.75376,305570.0,5387
1634.02,1.809319,295762.0,4588
1637.02,1.73849,286306.0,5228
1640.02,1.74486,276696.0,4979
1643.01,1.7687,267004.0,4548
1646,1.76738,257531.0,4400
1648.98,1.73708,247817.0,4540
1651.96,1.73869,238547.0,4354
1655.93,1.76487,225092.0,3868
1658.89,1.80584,214425.0,3353
1661.86,1.84138,202241.0,2914
1664.82,1.84645,188046.0,2678
1667.78,1.80597,171566.0,2682
1670.73,1.725857,154101.0,2897
1673.67,1.82228,134892.0,2031
1676.62,1.708777,115325.0,2255
1679.56,1.81414,97255.0,1492
1682.49,2.22824,81017.0,479
1686.4,1.66527,63571.0,1374
1689.32,1.95583,53566.0,593
1692.24,1.8248,45493.0,681
1695.16,1.608947,39217.0,965
1698.07,3.48413,33537.0,11
1700.97,2.36725,29118.0,125