File: Data/LDPE/LDPE13_Column 1_20211230_112433.csv
***Scan Config Information***,,,,,,,***Reference Scan Information***,,,,,,,,
Scan Config Name:,Column 1,,,,,,Scan Config Name:,Built-in Factory Reference,,,,,,
Scan Config Type:,Slew,Num Section:,1,,,,Scan Config Type:,Slew,Num Section:,1,,,,,
Section Config Type:,Column,,,,,,Section Config Type:,Column,,,,,,,
Start Wavelength (nm):,900,,,,,,Start Wavelength (nm):,900.0,,,,,,
End Wavelength (nm):,1700,,,,,,End Wavelength (nm):,1700.0,,,,,,
Pattern Width (nm):,7.03,,,,,,Pattern Width (nm):,7.03,,,,,,,
Exposure (ms):,0.635,,,,,,Exposure (ms):,0.635,,,,,,,
Digital Resolution:,228,,,,,,Digital Resolution:,228,,,,,,,
Num Repeats:,6,,,,,,Num Repeats:,30,,,,,,,
PGA Gain:,64,,,,,,PGA Gain:,64,,,,,,
System Temp (C):,22.8,,,,,,System Temp (C):,24.17,,,,,,,
Humidity (%):,40.79,,,,,,Humidity (%):,30.0,,,,,,
Battery Capacity (%):,60,,,,,,Lamp Intensity:,2449,,,,,,,
Lamp Intensity:,2488,,,,,,Data Date-Time:,19/12/12T12:44:54,,,,,,
Data Date-Time:,18/1/1T7:3:52,,,,,,,,,,,,,,
Total Measurement Time in sec:,4.47,,,,,,,,,,,,,
***General Information***,,,,,,,***Calibration Coefficients***,,,,,,,,
Model Name:,NIR-S-G1,,,,,,Shift Vector Coefficients:,-8.44101,0.0554567,-8.45244e-05,,,,,
Serial Number:,947R055,95UB122GC0A947R055,,,,,Pixel to Wavelength Coefficients:,1795.87,-0.92014,-0.00023961,,,,,
APP Version:,2.16.7,,,,,,,,,,,,,
TIVA Version:,2.4.4,,,,,,***Lamp Usage * **,,,,,,,,
UUID:,de:67:c:88:67:2c:2d:21,,,,,,Total Time(HH:MM:SS):,12min 34sec ,,,,,,,
Main Board Version:,D,,,,,,***Device/Error Status***,,,,,,,,
Detector Board Version:,B,,,,,,Device Status:,0x00000031,,,,,,
,,,,,,,Error status:,0x00000000,Error Code:,0x00000000000000000000000000000000,,,,,
,,,,,,,,,Error Details:,Not Found,,,,,
***Scan Data***,,,,,,,,,,,,,,,
Wavelength (nm),Absorbance (AU),Reference Signal (unitless),Sample Signal (unitless)
901.841,1.72686,99968.0,1875
905.754,1.623094,108993.0,2596
909.663,1.62262,118185.0,2818
913.568,1.63327,129285.0,3008
917.469,1.67266,143347.0,3046
921.365,1.61962,160437.0,3852
925.257,1.63192,180387.0,4210
929.144,1.62161,201426.0,4814
933.028,1.615031,220694.0,5355
936.906,1.63935,237501.0,5449
942.072,1.61831,256956.0,6188
945.94,1.62893,270636.0,6360
949.805,1.61113,283621.0,6944
953.665,1.59807,296982.0,7493
957.521,1.60348,310733.0,7743
961.373,1.605,324587.0,8060
965.22,1.59768,339205.0,8566
969.063,1.60933,353669.0,8695
972.902,1.6095,368253.0,9050
976.736,1.59737,382531.0,9667
981.842,1.58588,399901.0,10377
985.666,1.61754,411528.0,9928
989.486,1.62365,422199.0,10043
993.302,1.61379,431172.0,10492
997.113,1.615482,438051.0,10618
1000.92,1.61817,444216.0,10701
1004.72,1.620005,449307.0,10778
1008.52,1.610335,453601.0,11126
1012.32,1.61132,456801.0,11179
1016.11,1.62072,459312.0,11000
1021.15,1.64615,461643.0,10427
1024.93,1.63651,463069.0,10694
1028.71,1.6306,463868.0,10859
1032.48,1.6267,464326.0,10968
1036.24,1.64378,466001.0,10583
1040.01,1.63912,466870.0,10717
1043.77,1.66714,467033.0,10051
1047.52,1.63561,467045.0,10808
1051.27,1.6322,467467.0,10903
1055.01,1.65614,467627.0,10322
1060,1.67109,468351.0,9988
1063.74,1.64481,469050.0,10627
1067.47,1.64976,469880.0,10525
1071.19,1.66399,471228.0,10215
1074.92,1.64204,472558.0,10775
1078.63,1.65803,474087.0,10419
1082.35,1.65739,476569.0,10489
1086.06,1.66295,479445.0,10418
1089.76,1.67338,481756.0,10220
1093.46,1.65791,485147.0,10665
1098.39,1.6845,489755.0,10127
1102.08,1.658489,493535.0,10835
1105.77,1.67932,497426.0,10409
1109.45,1.66536,501308.0,10833
1113.13,1.68835,505725.0,10365
1116.8,1.67863,509421.0,10677
1120.47,1.663962,513217.0,11126
1124.13,1.69018,517470.0,10561
1127.79,1.68528,521690.0,10768
1131.45,1.68897,526099.0,10767
1136.32,1.70335,531329.0,10520
1139.96,1.69082,535549.0,10914
1143.61,1.69962,539808.0,10780
1147.24,1.704798,543900.0,10733
1150.88,1.71189,547908.0,10637
1154.5,1.70684,552170.0,10845
1158.13,1.72919,556773.0,10387
1161.75,1.73857,561098.0,10244
1165.36,1.74138,565898.0,10265
1168.98,1.76119,571300.0,9901
1172.58,1.73861,576602.0,10526
1177.39,1.7555,584320.0,10260
1180.98,1.776178,589396.0,9868
1184.58,1.77561,596143.0,9994
1188.16,1.7967,602955.0,9629
1191.75,1.80717,609704.0,9505
1195.33,1.796868,617215.0,9853
1198.9,1.82285,624471.0,9390
1202.48,1.851993,632472.0,8893
1206.04,1.85661,640381.0,8909
1209.61,1.86868,648161.0,8770
1214.35,1.8758,659999.0,8785
1217.9,1.86304,668609.0,9165
1221.45,1.8545,677405.0,9470
1224.99,1.84732,686281.0,9754
1228.53,1.8152,695317.0,10641
1232.07,1.802915,704063.0,11084
1235.6,1.79315,713007.0,11480
1239.13,1.78339,721330.0,11878
1242.65,1.759537,730030.0,12700
1246.17,1.76299,737591.0,12730
1250.85,1.76647,746809.0,12786
1254.36,1.75481,753336.0,13249
1257.86,1.75492,759907.0,13361
1261.36,1.7372,766538.0,14039
1264.86,1.74727,774802.0,13865
1268.35,1.744803,784025.0,14110
1271.83,1.742608,794336.0,14368
1275.32,1.740178,804198.0,14628
1278.79,1.73421,813836.0,15008
1282.27,1.73922,823595.0,15014
1286.89,1.7398,834533.0,15193
1290.36,1.74197,842581.0,15263
1293.81,1.75242,849301.0,15019
1297.27,1.7365,856026.0,15703
1300.72,1.73529,862498.0,15866
1304.17,1.74582,868068.0,15586
1307.61,1.73999,872869.0,15884
1311.05,1.72888,877616.0,16384
1314.48,1.72903,881872.0,16458
1317.91,1.73344,885520.0,16359
1322.47,1.73177,888917.0,16485
1325.89,1.7301,891687.0,16600
1329.31,1.73029,894001.0,16636
1332.72,1.732163,895438.0,16591
1336.12,1.74142,896641.0,16263
1339.52,1.74108,897974.0,16300
1342.92,1.727413,898777.0,16836
1346.31,1.73415,898783.0,16577
1349.7,1.74694,898350.0,16088
1353.09,1.75568,896784.0,15740
1357.59,1.74595,895293.0,16070
1360.97,1.74854,892755.0,15929
1364.34,1.75202,890430.0,15761
1367.7,1.75055,888504.0,15780
1371.06,1.7496,885825.0,15767
1374.42,1.76527,881046.0,15126
1377.77,1.77276,874030.0,14749
1381.12,1.78215,865751.0,14297
1384.47,1.806605,857799.0,13390
1387.81,1.81684,851759.0,12986
1392.25,1.82767,846500.0,12588
1395.58,1.8373,843622.0,12270
1398.91,1.82957,841228.0,12455
1402.23,1.81744,838489.0,12766
1405.55,1.82187,836065.0,12600
1408.86,1.82145,834396.0,12587
1412.17,1.82439,832187.0,12469
1415.47,1.8378,830123.0,12060
1418.77,1.8329,828244.0,12169
1422.07,1.83834,827314.0,12004
1426.45,1.83557,826435.0,12068
1429.74,1.84648,825475.0,11755
1433.02,1.82928,824938.0,12222
1436.29,1.8165,823959.0,12572
1439.57,1.80659,823822.0,12860
1442.83,1.81454,823184.0,12617
1446.1,1.80496,821953.0,12879
1449.36,1.79887,821135.0,13048
1452.61,1.79497,819413.0,13138
1455.86,1.78045,817492.0,13553
1459.11,1.78962,814862.0,13227
1463.43,1.77995,811075.0,13462
1466.67,1.778609,807671.0,13447
1469.9,1.78101,803699.0,13307
1473.13,1.77485,799396.0,13425
1476.35,1.77632,795129.0,13308
1479.57,1.76015,790127.0,13726
1482.78,1.76107,784937.0,13607
1486,1.76119,779544.0,13510
1489.2,1.750478,773733.0,13744
1492.4,1.75482,767463.0,13497
1496.67,1.76268,758614.0,13102
1499.86,1.74913,751802.0,13396
1503.04,1.74196,744297.0,13483
1506.23,1.75517,735980.0,12933
1509.41,1.74922,728040.0,12970
1512.58,1.74835,719703.0,12847
1515.75,1.75104,710982.0,12613
1518.92,1.7501,702409.0,12488
1522.08,1.74654,693280.0,12427
1525.24,1.7513,683935.0,12126
1529.44,1.73034,671492.0,12494
1532.59,1.74194,661352.0,11981
1535.73,1.75894,650841.0,11338
1538.87,1.74858,640156.0,11421
1542,1.73534,629036.0,11570
1545.13,1.753092,617445.0,10902
1548.26,1.74288,605527.0,10946
1551.38,1.74495,594133.0,10689
1554.49,1.75136,582894.0,10333
1557.61,1.72998,571271.0,10638
1561.75,1.7523,555940.0,9834
1564.85,1.72303,544812.0,10309
1567.95,1.72316,533402.0,10090
1571.05,1.72633,521915.0,9801
1574.14,1.72498,510788.0,9622
1577.22,1.72366,499607.0,9440
1580.3,1.72614,487992.0,9168
1583.38,1.73061,476265.0,8856
1586.45,1.7241,464618.0,8770
1589.52,1.73327,452782.0,8368
1593.6,1.71724,436897.0,8378
1596.66,1.72581,425551.0,8001
1599.71,1.72712,414191.0,7764
1602.76,1.72399,402799.0,7605
1605.81,1.704894,391352.0,7721
1608.85,1.71757,380811.0,7297
1611.89,1.75833,370076.0,6456
1614.92,1.74893,359798.0,6414
1617.95,1.72892,349165.0,6518
1620.97,1.720412,338717.0,6448
1624.99,1.73265,325435.0,6023
1628.01,1.74544,315463.0,5669
1631.02,1.72855,305570.0,5709
1634.02,1.71082,295762.0,5756
1637.02,1.72363,286306.0,5410
1640.02,1.69436,276696.0,5593
1643.01,1.71496,267004.0,5147
1646,1.73095,257531.0,4785
1648.98,1.72987,247817.0,4616
1651.96,1.74532,238547.0,4288
1655.93,1.738307,225092.0,4112
1658.89,1.72727,214425.0,4018
1661.86,1.73861,202241.0,3692
1664.82,1.7152,188046.0,3623
1667.78,1.79557,171566.0,2747
1670.73,1.78451,154101.0,2531
1673.67,1.74671,134892.0,2417
1676.62,1.7834,115325.0,1899
1679.56,1.79842,97255.0,1547
1682.49,1.70148,81017.0,1611
1686.4,1.77754,63571.0,1061
1689.32,1.75761,53566.0,936
1692.24,1.95208,45493.0,508
1695.16,1.7907,39217.0,635
1698.07,2.23549,33537.0,195
1700.97,2.00628,29118.0,287