File: Data/LDPE/LDPE7_Column 1_20211230_112308.csv
***Scan Config Information***,,,,,,,***Reference Scan Information***,,,,,,,,
Scan Config Name:,Column 1,,,,,,Scan Config Name:,Built-in Factory Reference,,,,,,
Scan Config Type:,Slew,Num Section:,1,,,,Scan Config Type:,Slew,Num Section:,1,,,,,
Section Config Type:,Column,,,,,,Section Config Type:,Column,,,,,,,
Start Wavelength (nm):,900,,,,,,Start Wavelength (nm):,900.0,,,,,,
End Wavelength (nm):,1700,,,,,,End Wavelength (nm):,1700.0,,,,,,
Pattern Width (nm):,7.03,,,,,,Pattern Width (nm):,7.03,,,,,,,
Exposure (ms):,0.635,,,,,,Exposure (ms):,0.635,,,,,,,
Digital Resolution:,228,,,,,,Digital Resolution:,228,,,,,,,
Num Repeats:,6,,,,,,Num Repeats:,30,,,,,,,
PGA Gain:,64,,,,,,PGA Gain:,64,,,,,,
System Temp (C):,21.37,,,,,,System Temp (C):,24.17,,,,,,,
Humidity (%):,40.81,,,,,,Humidity (%):,30.0,,,,,,
Battery Capacity (%):,62,,,,,,Lamp Intensity:,2449,,,,,,,
Lamp Intensity:,2468,,,,,,Data Date-Time:,19/12/12T12:44:54,,,,,,
Data Date-Time:,18/1/1T7:2:27,,,,,,,,,,,,,,
Total Measurement Time in sec:,5.165,,,,,,,,,,,,,
***General Information***,,,,,,,***Calibration Coefficients***,,,,,,,,
Model Name:,NIR-S-G1,,,,,,Shift Vector Coefficients:,-8.44101,0.0554567,-8.45244e-05,,,,,
Serial Number:,947R055,95UB122GC0A947R055,,,,,Pixel to Wavelength Coefficients:,1795.87,-0.92014,-0.00023961,,,,,
APP Version:,2.16.7,,,,,,,,,,,,,
TIVA Version:,2.4.4,,,,,,***Lamp Usage * **,,,,,,,,
UUID:,de:67:c:88:67:2c:2d:21,,,,,,Total Time(HH:MM:SS):,12min 21sec ,,,,,,,
Main Board Version:,D,,,,,,***Device/Error Status***,,,,,,,,
Detector Board Version:,B,,,,,,Device Status:,0x00000031,,,,,,
,,,,,,,Error status:,0x00000000,Error Code:,0x00000000000000000000000000000000,,,,,
,,,,,,,,,Error Details:,Not Found,,,,,
***Scan Data***,,,,,,,,,,,,,,,
Wavelength (nm),Absorbance (AU),Reference Signal (unitless),Sample Signal (unitless)
901.841,1.43107,99968.0,3705
905.754,1.45002,108993.0,3867
909.663,1.43648,118185.0,4326
913.568,1.42002,129285.0,4915
917.469,1.47605,143347.0,4790
921.365,1.41054,160437.0,6234
925.257,1.44557,180387.0,6466
929.144,1.42853,201426.0,7509
933.028,1.44677,220694.0,7889
936.906,1.44147,237501.0,8594
942.072,1.45082,256956.0,9100
945.94,1.45093,270636.0,9582
949.805,1.43612,283621.0,10390
953.665,1.43383,296982.0,10937
957.521,1.44031,310733.0,11274
961.373,1.42217,324587.0,12279
965.22,1.42902,339205.0,12631
969.063,1.436797,353669.0,12936
972.902,1.43539,368253.0,13513
976.736,1.42879,382531.0,14252
981.842,1.442235,399901.0,14445
985.666,1.44142,411528.0,14893
989.486,1.43992,422199.0,15332
993.302,1.45087,431172.0,15268
997.113,1.45494,438051.0,15367
1000.92,1.44789,444216.0,15838
1004.72,1.44653,449307.0,16070
1008.52,1.45533,453601.0,15898
1012.32,1.457484,456801.0,15931
1016.11,1.46748,459312.0,15654
1021.15,1.45651,461643.0,16136
1024.93,1.46765,463069.0,15776
1028.71,1.46222,463868.0,16002
1032.48,1.47101,464326.0,15697
1036.24,1.46503,466001.0,15972
1040.01,1.47766,466870.0,15543
1043.77,1.47994,467033.0,15467
1047.52,1.467443,467045.0,15919
1051.27,1.48948,467467.0,15145
1055.01,1.48808,467627.0,15199
1060,1.49972,468351.0,14820
1063.74,1.48958,469050.0,15193
1067.47,1.48348,469880.0,15435
1071.19,1.48661,471228.0,15368
1074.92,1.49233,472558.0,15210
1078.63,1.50256,474087.0,14904
1082.35,1.50004,476569.0,15069
1086.06,1.50491,479445.0,14991
1089.76,1.50717,481756.0,14985
1093.46,1.494143,485147.0,15550
1098.39,1.50834,489755.0,15193
1102.08,1.51801,493535.0,14973
1105.77,1.51076,497426.0,15345
1109.45,1.50437,501308.0,15694
1113.13,1.511319,505725.0,15581
1116.8,1.50606,509421.0,15886
1120.47,1.51618,513217.0,15636
1124.13,1.51416,517470.0,15839
1127.79,1.50889,521690.0,16163
1131.45,1.5143,526099.0,16098
1136.32,1.5148,531329.0,16239
1139.96,1.519311,535549.0,16199
1143.61,1.53482,539808.0,15755
1147.24,1.53659,543900.0,15810
1150.88,1.53172,547908.0,16106
1154.5,1.5443,552170.0,15768
1158.13,1.54527,556773.0,15864
1161.75,1.56557,561098.0,15257
1165.36,1.56881,565898.0,15273
1168.98,1.57112,571300.0,15337
1172.58,1.58982,576602.0,14827
1177.39,1.586984,584320.0,15124
1180.98,1.598827,589396.0,14845
1184.58,1.61061,596143.0,14613
1188.16,1.62751,602955.0,14216
1191.75,1.63636,609704.0,14085
1195.33,1.65413,617215.0,13687
1198.9,1.67547,624471.0,13184
1202.48,1.684,632472.0,13093
1206.04,1.72033,640381.0,12193
1209.61,1.7422,648161.0,11735
1214.35,1.737081,659999.0,12091
1217.9,1.7341,668609.0,12333
1221.45,1.72073,677405.0,12886
1224.99,1.68376,686281.0,14215
1228.53,1.66335,695317.0,15095
1232.07,1.64409,704063.0,15978
1235.6,1.61035,713007.0,17488
1239.13,1.60405,721330.0,17951
1242.65,1.5912,730030.0,18713
1246.17,1.58397,737591.0,19224
1250.85,1.57665,746809.0,19795
1254.36,1.57687,753336.0,19958
1257.86,1.57577,759907.0,20183
1261.36,1.5641,766538.0,20914
1264.86,1.56425,774802.0,21132
1268.35,1.56012,784025.0,21588
1271.83,1.55756,794336.0,22001
1275.32,1.55605,804198.0,22352
1278.79,1.55868,813836.0,22483
1282.27,1.55086,823595.0,23166
1286.89,1.55731,834533.0,23128
1290.36,1.551854,842581.0,23646
1293.81,1.54869,849301.0,24009
1297.27,1.556056,856026.0,23792
1300.72,1.55629,862498.0,23959
1304.17,1.55243,868068.0,24329
1307.61,1.55077,872869.0,24557
1311.05,1.55716,877616.0,24330
1314.48,1.55546,881872.0,24544
1317.91,1.55224,885520.0,24829
1322.47,1.552383,888917.0,24916
1325.89,1.5484,891687.0,25224
1329.31,1.552357,894001.0,25060
1332.72,1.55036,895438.0,25216
1336.12,1.551908,896641.0,25160
1339.52,1.55236,897974.0,25171
1342.92,1.54955,898777.0,25357
1346.31,1.54657,898783.0,25532
1349.7,1.55822,898350.0,24844
1353.09,1.5512,896784.0,25205
1357.59,1.55495,895293.0,24947
1360.97,1.56042,892755.0,24565
1364.34,1.56498,890430.0,24245
1367.7,1.56295,888504.0,24306
1371.06,1.58035,885825.0,23281
1374.42,1.595352,881046.0,22369
1377.77,1.59371,874030.0,22275
1381.12,1.61091,865751.0,21207
1384.47,1.626746,857799.0,20260
1387.81,1.65445,851759.0,18874
1392.25,1.67618,846500.0,17842
1395.58,1.67641,843622.0,17772
1398.91,1.66506,841228.0,18191
1402.23,1.66176,838489.0,18270
1405.55,1.64649,836065.0,18869
1408.86,1.66925,834396.0,17870
1412.17,1.6751,832187.0,17584
1415.47,1.688183,830123.0,17020
1418.77,1.67903,828244.0,17343
1422.07,1.678371,827314.0,17350
1426.45,1.68052,826435.0,17246
1429.74,1.67129,825475.0,17596
1433.02,1.65927,824938.0,18078
1436.29,1.66585,823959.0,17785
1439.57,1.6648,823822.0,17825
1442.83,1.67318,823184.0,17471
1446.1,1.650596,821953.0,18376
1449.36,1.64243,821135.0,18706
1452.61,1.64194,819413.0,18688
1455.86,1.63154,817492.0,19096
1459.11,1.630392,814862.0,19085
1463.43,1.61714,811075.0,19585
1466.67,1.62355,807671.0,19217
1469.9,1.61147,803699.0,19662
1473.13,1.62102,799396.0,19131
1476.35,1.60485,795129.0,19751
1479.57,1.61187,790127.0,19312
1482.78,1.60229,784937.0,19613
1486,1.59447,779544.0,19832
1489.2,1.59585,773733.0,19622
1492.4,1.5954,767463.0,19483
1496.67,1.58901,758614.0,19544
1499.86,1.59012,751802.0,19319
1503.04,1.59602,744297.0,18868
1506.23,1.58606,735980.0,19090
1509.41,1.58519,728040.0,18922
1512.58,1.59106,719703.0,18454
1515.75,1.5943,710982.0,18095
1518.92,1.58537,702409.0,18248
1522.08,1.58964,693280.0,17835
1525.24,1.59544,683935.0,17361
1529.44,1.60003,671492.0,16866
1532.59,1.58947,661352.0,17020
1535.73,1.596386,650841.0,16485
1538.87,1.60456,640156.0,15912
1542,1.60436,629036.0,15643
1545.13,1.58472,617445.0,16065
1548.26,1.59388,605527.0,15426
1551.38,1.59629,594133.0,15052
1554.49,1.58392,582894.0,15194
1557.61,1.59115,571271.0,14645
1561.75,1.58145,555940.0,14574
1564.85,1.58488,544812.0,14170
1567.95,1.58517,533402.0,13864
1571.05,1.57505,521915.0,13885
1574.14,1.58007,510788.0,13433
1577.22,1.58428,499607.0,13012
1580.3,1.59182,487992.0,12491
1583.38,1.58209,476265.0,12467
1586.45,1.58034,464618.0,12211
1589.52,1.581951,452782.0,11856
1593.6,1.5926,436897.0,11163
1596.66,1.57931,425551.0,11211
1599.71,1.57294,414191.0,11073
1602.76,1.58839,402799.0,10392
1605.81,1.59461,391352.0,9953
1608.85,1.5691,380811.0,10271
1611.89,1.593411,370076.0,9438
1614.92,1.60331,359798.0,8969
1617.95,1.59374,349165.0,8898
1620.97,1.593273,338717.0,8641
1624.99,1.58803,325435.0,8403
1628.01,1.58907,315463.0,8126
1631.02,1.59981,305570.0,7679
1634.02,1.59001,295762.0,7602
1637.02,1.60975,286306.0,7032
1640.02,1.61463,276696.0,6720
1643.01,1.60337,267004.0,6655
1646,1.626926,257531.0,6080
1648.98,1.593208,247817.0,6323
1651.96,1.61146,238547.0,5836
1655.93,1.60909,225092.0,5537
1658.89,1.63387,214425.0,4982
1661.86,1.61267,202241.0,4934
1664.82,1.64302,188046.0,4278
1667.78,1.68188,171566.0,3569
1670.73,1.61984,154101.0,3698
1673.67,1.65913,134892.0,2957
1676.62,1.6694,115325.0,2469
1679.56,1.722151,97255.0,1844
1682.49,1.69057,81017.0,1652
1686.4,1.72083,63571.0,1209
1689.32,1.76181,53566.0,927
1692.24,2.15279,45493.0,320
1695.16,1.97126,39217.0,419
1698.07,NaN,33537.0,-264
1700.97,1.85671,29118.0,405