File: Data/LDPE/LDPE8_Column 1_20211230_112323.csv
***Scan Config Information***,,,,,,,***Reference Scan Information***,,,,,,,,
Scan Config Name:,Column 1,,,,,,Scan Config Name:,Built-in Factory Reference,,,,,,
Scan Config Type:,Slew,Num Section:,1,,,,Scan Config Type:,Slew,Num Section:,1,,,,,
Section Config Type:,Column,,,,,,Section Config Type:,Column,,,,,,,
Start Wavelength (nm):,900,,,,,,Start Wavelength (nm):,900.0,,,,,,
End Wavelength (nm):,1700,,,,,,End Wavelength (nm):,1700.0,,,,,,
Pattern Width (nm):,7.03,,,,,,Pattern Width (nm):,7.03,,,,,,,
Exposure (ms):,0.635,,,,,,Exposure (ms):,0.635,,,,,,,
Digital Resolution:,228,,,,,,Digital Resolution:,228,,,,,,,
Num Repeats:,6,,,,,,Num Repeats:,30,,,,,,,
PGA Gain:,64,,,,,,PGA Gain:,64,,,,,,
System Temp (C):,21.66,,,,,,System Temp (C):,24.17,,,,,,,
Humidity (%):,40.89,,,,,,Humidity (%):,30.0,,,,,,
Battery Capacity (%):,62,,,,,,Lamp Intensity:,2449,,,,,,,
Lamp Intensity:,2472,,,,,,Data Date-Time:,19/12/12T12:44:54,,,,,,
Data Date-Time:,18/1/1T7:2:42,,,,,,,,,,,,,,
Total Measurement Time in sec:,4.299,,,,,,,,,,,,,
***General Information***,,,,,,,***Calibration Coefficients***,,,,,,,,
Model Name:,NIR-S-G1,,,,,,Shift Vector Coefficients:,-8.44101,0.0554567,-8.45244e-05,,,,,
Serial Number:,947R055,95UB122GC0A947R055,,,,,Pixel to Wavelength Coefficients:,1795.87,-0.92014,-0.00023961,,,,,
APP Version:,2.16.7,,,,,,,,,,,,,
TIVA Version:,2.4.4,,,,,,***Lamp Usage * **,,,,,,,,
UUID:,de:67:c:88:67:2c:2d:21,,,,,,Total Time(HH:MM:SS):,12min 23sec ,,,,,,,
Main Board Version:,D,,,,,,***Device/Error Status***,,,,,,,,
Detector Board Version:,B,,,,,,Device Status:,0x00000031,,,,,,
,,,,,,,Error status:,0x00000000,Error Code:,0x00000000000000000000000000000000,,,,,
,,,,,,,,,Error Details:,Not Found,,,,,
***Scan Data***,,,,,,,,,,,,,,,
Wavelength (nm),Absorbance (AU),Reference Signal (unitless),Sample Signal (unitless)
901.841,1.36984,99968.0,4266
905.754,1.32123,108993.0,5202
909.663,1.35456,118185.0,5224
913.568,1.37213,129285.0,5488
917.469,1.35355,143347.0,6351
921.365,1.37433,160437.0,6776
925.257,1.36685,180387.0,7751
929.144,1.37301,201426.0,8533
933.028,1.37981,220694.0,9204
936.906,1.37177,237501.0,10090
942.072,1.368703,256956.0,10994
945.94,1.37529,270636.0,11405
949.805,1.362798,283621.0,12301
953.665,1.35318,296982.0,13169
957.521,1.36183,310733.0,13507
961.373,1.36935,324587.0,13867
965.22,1.36676,339205.0,14578
969.063,1.367726,353669.0,15166
972.902,1.36273,368253.0,15974
976.736,1.370559,382531.0,16297
981.842,1.3813,399901.0,16621
985.666,1.36339,411528.0,17824
989.486,1.37988,422199.0,17605
993.302,1.380175,431172.0,17967
997.113,1.37626,438051.0,18419
1000.92,1.38377,444216.0,18358
1004.72,1.3846,449307.0,18533
1008.52,1.38428,453601.0,18724
1012.32,1.38944,456801.0,18633
1016.11,1.3925,459312.0,18604
1021.15,1.39274,461643.0,18688
1024.93,1.39704,463069.0,18561
1028.71,1.4016,463868.0,18399
1032.48,1.405465,464326.0,18254
1036.24,1.41049,466001.0,18109
1040.01,1.393378,466870.0,18872
1043.77,1.411813,467033.0,18094
1047.52,1.41745,467045.0,17861
1051.27,1.40697,467467.0,18314
1055.01,1.41965,467627.0,17793
1060,1.41417,468351.0,18047
1063.74,1.418536,469050.0,17893
1067.47,1.4292,469880.0,17490
1071.19,1.426265,471228.0,17659
1074.92,1.415746,472558.0,18143
1078.63,1.42808,474087.0,17692
1082.35,1.42998,476569.0,17707
1086.06,1.43306,479445.0,17688
1089.76,1.4308,481756.0,17866
1093.46,1.43065,485147.0,17998
1098.39,1.43582,489755.0,17954
1102.08,1.43836,493535.0,17987
1105.77,1.44006,497426.0,18058
1109.45,1.44202,501308.0,18117
1113.13,1.43933,505725.0,18390
1116.8,1.45123,509421.0,18024
1120.47,1.44327,513217.0,18494
1124.13,1.45103,517470.0,18317
1127.79,1.45408,521690.0,18337
1131.45,1.4396,526099.0,19119
1136.32,1.45718,531329.0,18543
1139.96,1.46502,535549.0,18356
1143.61,1.462,539808.0,18631
1147.24,1.47252,543900.0,18323
1150.88,1.47027,547908.0,18554
1154.5,1.48179,552170.0,18209
1158.13,1.49614,556773.0,17764
1161.75,1.505232,561098.0,17531
1165.36,1.52033,565898.0,17077
1168.98,1.51604,571300.0,17411
1172.58,1.52603,576602.0,17173
1177.39,1.52863,584320.0,17299
1180.98,1.54409,589396.0,16839
1184.58,1.56045,596143.0,16402
1188.16,1.56594,602955.0,16381
1191.75,1.58048,609704.0,16019
1195.33,1.59726,617215.0,15602
1198.9,1.61677,624471.0,15092
1202.48,1.64771,632472.0,14234
1206.04,1.67424,640381.0,13558
1209.61,1.69016,648161.0,13229
1214.35,1.70905,659999.0,12897
1217.9,1.69758,668609.0,13415
1221.45,1.666109,677405.0,14613
1224.99,1.64069,686281.0,15697
1228.53,1.61314,695317.0,16945
1232.07,1.59178,704063.0,18023
1235.6,1.57213,713007.0,19097
1239.13,1.55546,721330.0,20076
1242.65,1.55032,730030.0,20560
1246.17,1.53716,737591.0,21412
1250.85,1.52839,746809.0,22122
1254.36,1.53857,753336.0,21798
1257.86,1.52525,759907.0,22673
1261.36,1.52368,766538.0,22954
1264.86,1.52413,774802.0,23177
1268.35,1.52811,784025.0,23239
1271.83,1.525751,794336.0,23673
1275.32,1.52209,804198.0,24170
1278.79,1.51957,813836.0,24602
1282.27,1.51722,823595.0,25032
1286.89,1.52661,834533.0,24822
1290.36,1.51615,842581.0,25672
1293.81,1.52167,849301.0,25550
1297.27,1.51601,856026.0,26090
1300.72,1.52167,862498.0,25947
1304.17,1.52141,868068.0,26130
1307.61,1.51314,872869.0,26780
1311.05,1.51844,877616.0,26599
1314.48,1.52067,881872.0,26591
1317.91,1.51653,885520.0,26957
1322.47,1.5141,888917.0,27212
1325.89,1.51676,891687.0,27130
1329.31,1.52107,894001.0,26932
1332.72,1.51927,895438.0,27087
1336.12,1.52588,896641.0,26714
1339.52,1.51993,897974.0,27123
1342.92,1.51762,898777.0,27292
1346.31,1.52374,898783.0,26910
1349.7,1.52269,898350.0,26962
1353.09,1.53224,896784.0,26330
1357.59,1.523,895293.0,26851
1360.97,1.52931,892755.0,26389
1364.34,1.53209,890430.0,26152
1367.7,1.54095,888504.0,25569
1371.06,1.5451,885825.0,25249
1374.42,1.55727,881046.0,24419
1377.77,1.569849,874030.0,23533
1381.12,1.58196,865751.0,22669
1384.47,1.6006,857799.0,21517
1387.81,1.62665,851759.0,20122
1392.25,1.65558,846500.0,18709
1395.58,1.656705,843622.0,18597
1398.91,1.63586,841228.0,19456
1402.23,1.625715,838489.0,19851
1405.55,1.6293,836065.0,19631
1408.86,1.63134,834396.0,19500
1412.17,1.64933,832187.0,18659
1415.47,1.65388,830123.0,18419
1418.77,1.64662,828244.0,18687
1422.07,1.65073,827314.0,18490
1426.45,1.64363,826435.0,18775
1429.74,1.65184,825475.0,18402
1433.02,1.64317,824938.0,18761
1436.29,1.64698,823959.0,18575
1439.57,1.62929,823822.0,19344
1442.83,1.63433,823184.0,19106
1446.1,1.63024,821953.0,19258
1449.36,1.62092,821135.0,19656
1452.61,1.61339,819413.0,19958
1455.86,1.6046,817492.0,20318
1459.11,1.6041,814862.0,20276
1463.43,1.59336,811075.0,20687
1466.67,1.59305,807671.0,20615
1469.9,1.58942,803699.0,20686
1473.13,1.57866,799396.0,21091
1476.35,1.570633,795129.0,21370
1479.57,1.57257,790127.0,21141
1482.78,1.57078,784937.0,21089
1486,1.56768,779544.0,21094
1489.2,1.56645,773733.0,20996
1492.4,1.56768,767463.0,20767
1496.67,1.56008,758614.0,20890
1499.86,1.564392,751802.0,20498
1503.04,1.55643,744297.0,20669
1506.23,1.56078,735980.0,20234
1509.41,1.55963,728040.0,20069
1512.58,1.56712,719703.0,19500
1515.75,1.56165,710982.0,19508
1518.92,1.562,702409.0,19257
1522.08,1.56712,693280.0,18784
1525.24,1.56287,683935.0,18713
1529.44,1.56182,671492.0,18417
1532.59,1.5655,661352.0,17986
1535.73,1.56984,650841.0,17524
1538.87,1.56536,640156.0,17415
1542,1.56563,629036.0,17102
1545.13,1.560942,617445.0,16969
1548.26,1.56268,605527.0,16575
1551.38,1.560738,594133.0,16336
1554.49,1.55822,582894.0,16120
1557.61,1.557087,571271.0,15840
1561.75,1.55548,555940.0,15472
1564.85,1.55851,544812.0,15057
1567.95,1.5572,533402.0,14786
1571.05,1.55489,521915.0,14545
1574.14,1.55611,510788.0,14195
1577.22,1.55555,499607.0,13902
1580.3,1.54247,487992.0,13994
1583.38,1.55485,476265.0,13274
1586.45,1.55765,464618.0,12866
1589.52,1.56772,452782.0,12251
1593.6,1.5577,436897.0,12097
1596.66,1.55137,425551.0,11956
1599.71,1.5674,414191.0,11215
1602.76,1.56866,402799.0,10875
1605.81,1.55236,391352.0,10970
1608.85,1.553156,380811.0,10655
1611.89,1.55364,370076.0,10343
1614.92,1.54648,359798.0,10223
1617.95,1.56271,349165.0,9557
1620.97,1.543558,338717.0,9689
1624.99,1.556392,325435.0,9038
1628.01,1.58134,315463.0,8272
1631.02,1.57609,305570.0,8110
1634.02,1.57403,295762.0,7887
1637.02,1.57017,286306.0,7703
1640.02,1.57265,276696.0,7402
1643.01,1.59235,267004.0,6826
1646,1.590628,257531.0,6610
1648.98,1.58518,247817.0,6441
1651.96,1.59704,238547.0,6033
1655.93,1.59504,225092.0,5719
1658.89,1.58698,214425.0,5550
1661.86,1.59028,202241.0,5195
1664.82,1.61085,188046.0,4607
1667.78,1.66682,171566.0,3695
1670.73,1.66929,154101.0,3300
1673.67,1.66579,134892.0,2912
1676.62,1.72207,115325.0,2187
1679.56,1.56994,97255.0,2618
1682.49,1.64023,81017.0,1855
1686.4,1.65962,63571.0,1392
1689.32,1.69869,53566.0,1072
1692.24,1.59536,45493.0,1155
1695.16,1.88676,39217.0,509
1698.07,1.910627,33537.0,412
1700.97,1.67317,29118.0,618