File: Data/LDPE/LDPE20_Column 1_20211230_112624.csv
***Scan Config Information***,,,,,,,***Reference Scan Information***,,,,,,,,
Scan Config Name:,Column 1,,,,,,Scan Config Name:,Built-in Factory Reference,,,,,,
Scan Config Type:,Slew,Num Section:,1,,,,Scan Config Type:,Slew,Num Section:,1,,,,,
Section Config Type:,Column,,,,,,Section Config Type:,Column,,,,,,,
Start Wavelength (nm):,900,,,,,,Start Wavelength (nm):,900.0,,,,,,
End Wavelength (nm):,1700,,,,,,End Wavelength (nm):,1700.0,,,,,,
Pattern Width (nm):,7.03,,,,,,Pattern Width (nm):,7.03,,,,,,,
Exposure (ms):,0.635,,,,,,Exposure (ms):,0.635,,,,,,,
Digital Resolution:,228,,,,,,Digital Resolution:,228,,,,,,,
Num Repeats:,6,,,,,,Num Repeats:,30,,,,,,,
PGA Gain:,64,,,,,,PGA Gain:,64,,,,,,
System Temp (C):,24.36,,,,,,System Temp (C):,24.17,,,,,,,
Humidity (%):,40.47,,,,,,Humidity (%):,30.0,,,,,,
Battery Capacity (%):,59,,,,,,Lamp Intensity:,2449,,,,,,,
Lamp Intensity:,2512,,,,,,Data Date-Time:,19/12/12T12:44:54,,,,,,
Data Date-Time:,18/1/1T7:5:43,,,,,,,,,,,,,,
Total Measurement Time in sec:,4.199,,,,,,,,,,,,,
***General Information***,,,,,,,***Calibration Coefficients***,,,,,,,,
Model Name:,NIR-S-G1,,,,,,Shift Vector Coefficients:,-8.44101,0.0554567,-8.45244e-05,,,,,
Serial Number:,947R055,95UB122GC0A947R055,,,,,Pixel to Wavelength Coefficients:,1795.87,-0.92014,-0.00023961,,,,,
APP Version:,2.16.7,,,,,,,,,,,,,
TIVA Version:,2.4.4,,,,,,***Lamp Usage * **,,,,,,,,
UUID:,de:67:c:88:67:2c:2d:21,,,,,,Total Time(HH:MM:SS):,12min 50sec ,,,,,,,
Main Board Version:,D,,,,,,***Device/Error Status***,,,,,,,,
Detector Board Version:,B,,,,,,Device Status:,0x00000031,,,,,,
,,,,,,,Error status:,0x00000000,Error Code:,0x00000000000000000000000000000000,,,,,
,,,,,,,,,Error Details:,Not Found,,,,,
***Scan Data***,,,,,,,,,,,,,,,
Wavelength (nm),Absorbance (AU),Reference Signal (unitless),Sample Signal (unitless)
901.841,1.47417,99968.0,3355
905.754,1.449127,108993.0,3875
909.663,1.46436,118185.0,4057
913.568,1.446061,129285.0,4629
917.469,1.41508,143347.0,5512
921.365,1.4508,160437.0,5682
925.257,1.50825,180387.0,5597
929.144,1.46514,201426.0,6902
933.028,1.44299,220694.0,7958
936.906,1.46627,237501.0,8117
942.072,1.45571,256956.0,8998
945.94,1.44917,270636.0,9621
949.805,1.46089,283621.0,9814
953.665,1.45977,296982.0,10303
957.521,1.453251,310733.0,10943
961.373,1.45469,324587.0,11393
965.22,1.43827,339205.0,12365
969.063,1.46721,353669.0,12061
972.902,1.45354,368253.0,12960
976.736,1.442,382531.0,13825
981.842,1.47288,399901.0,13461
985.666,1.46864,411528.0,13988
989.486,1.44925,422199.0,15006
993.302,1.44203,431172.0,15582
997.113,1.47592,438051.0,14642
1000.92,1.46524,444216.0,15218
1004.72,1.45881,449307.0,15622
1008.52,1.472153,453601.0,15294
1012.32,1.47765,456801.0,15208
1016.11,1.47366,459312.0,15433
1021.15,1.48081,461643.0,15258
1024.93,1.47906,463069.0,15367
1028.71,1.48681,463868.0,15121
1032.48,1.48937,464326.0,15047
1036.24,1.49267,466001.0,14987
1040.01,1.49668,466870.0,14877
1043.77,1.49158,467033.0,15058
1047.52,1.50736,467045.0,14521
1051.27,1.49569,467467.0,14930
1055.01,1.50856,467627.0,14499
1060,1.5019,468351.0,14746
1063.74,1.50812,469050.0,14558
1067.47,1.51047,469880.0,14505
1071.19,1.50754,471228.0,14645
1074.92,1.4975,472558.0,15030
1078.63,1.511089,474087.0,14614
1082.35,1.50986,476569.0,14732
1086.06,1.508311,479445.0,14874
1089.76,1.51078,481756.0,14861
1093.46,1.51444,485147.0,14840
1098.39,1.51241,489755.0,15051
1102.08,1.51125,493535.0,15208
1105.77,1.517694,497426.0,15102
1109.45,1.53055,501308.0,14776
1113.13,1.5331,505725.0,14819
1116.8,1.52684,509421.0,15144
1120.47,1.52473,513217.0,15331
1124.13,1.52375,517470.0,15493
1127.79,1.52588,521690.0,15543
1131.45,1.53405,526099.0,15382
1136.32,1.53007,531329.0,15678
1139.96,1.53791,535549.0,15520
1143.61,1.54661,539808.0,15333
1147.24,1.55574,543900.0,15128
1150.88,1.54639,547908.0,15571
1154.5,1.55306,552170.0,15453
1158.13,1.57886,556773.0,14683
1161.75,1.57606,561098.0,14893
1165.36,1.57699,565898.0,14988
1168.98,1.5849,571300.0,14858
1172.58,1.60908,576602.0,14184
1177.39,1.61882,584320.0,14055
1180.98,1.60913,589396.0,14497
1184.58,1.61847,596143.0,14351
1188.16,1.64563,602955.0,13635
1191.75,1.64872,609704.0,13690
1195.33,1.66356,617215.0,13393
1198.9,1.66987,624471.0,13355
1202.48,1.70966,632472.0,12342
1206.04,1.73075,640381.0,11904
1209.61,1.73084,648161.0,12046
1214.35,1.758317,659999.0,11514
1217.9,1.75303,668609.0,11807
1221.45,1.72276,677405.0,12826
1224.99,1.71014,686281.0,13377
1228.53,1.68043,695317.0,14513
1232.07,1.65482,704063.0,15588
1235.6,1.63314,713007.0,16594
1239.13,1.63492,721330.0,16719
1242.65,1.60829,730030.0,17991
1246.17,1.60815,737591.0,18183
1250.85,1.6033,746809.0,18617
1254.36,1.599265,753336.0,18955
1257.86,1.60336,759907.0,18941
1261.36,1.59434,766538.0,19507
1264.86,1.58753,774802.0,20029
1268.35,1.5948,784025.0,19931
1271.83,1.59424,794336.0,20219
1275.32,1.592192,804198.0,20567
1278.79,1.57852,813836.0,21479
1282.27,1.59094,823595.0,21124
1286.89,1.57863,834533.0,22020
1290.36,1.5861,842581.0,21853
1293.81,1.591942,849301.0,21733
1297.27,1.57612,856026.0,22718
1300.72,1.58269,862498.0,22546
1304.17,1.57333,868068.0,23186
1307.61,1.58466,872869.0,22714
1311.05,1.58078,877616.0,23042
1314.48,1.5847,881872.0,22946
1317.91,1.58515,885520.0,23017
1322.47,1.58568,888917.0,23077
1325.89,1.58467,891687.0,23203
1329.31,1.582252,894001.0,23393
1332.72,1.58165,895438.0,23463
1336.12,1.58411,896641.0,23362
1339.52,1.58604,897974.0,23293
1342.92,1.58715,898777.0,23254
1346.31,1.58989,898783.0,23108
1349.7,1.58989,898350.0,23097
1353.09,1.59403,896784.0,22838
1357.59,1.59434,895293.0,22784
1360.97,1.59033,892755.0,22930
1364.34,1.60001,890430.0,22366
1367.7,1.60472,888504.0,22077
1371.06,1.61103,885825.0,21693
1374.42,1.61095,881046.0,21580
1377.77,1.62766,874030.0,20600
1381.12,1.63928,865751.0,19866
1384.47,1.66954,857799.0,18359
1387.81,1.67829,851759.0,17866
1392.25,1.693135,846500.0,17159
1395.58,1.70066,843622.0,16807
1398.91,1.68627,841228.0,17324
1402.23,1.68595,838489.0,17280
1405.55,1.67838,836065.0,17533
1408.86,1.69547,834396.0,16823
1412.17,1.70374,832187.0,16462
1415.47,1.7073,830123.0,16287
1418.77,1.70025,828244.0,16516
1422.07,1.71168,827314.0,16069
1426.45,1.69177,826435.0,16805
1429.74,1.69922,825475.0,16500
1433.02,1.70055,824938.0,16439
1436.29,1.70255,823959.0,16344
1439.57,1.6906,823822.0,16797
1442.83,1.68915,823184.0,16840
1446.1,1.67475,821953.0,17382
1449.36,1.67461,821135.0,17370
1452.61,1.6777,819413.0,17211
1455.86,1.66616,817492.0,17633
1459.11,1.65906,814862.0,17866
1463.43,1.65074,811075.0,18127
1466.67,1.65662,807671.0,17808
1469.9,1.65168,803699.0,17923
1473.13,1.64747,799396.0,18001
1476.35,1.63588,795129.0,18389
1479.57,1.63849,790127.0,18164
1482.78,1.63821,784937.0,18056
1486,1.63203,779544.0,18189
1489.2,1.63308,773733.0,18010
1492.4,1.62683,767463.0,18123
1496.67,1.629967,758614.0,17785
1499.86,1.618233,751802.0,18108
1503.04,1.62318,744297.0,17724
1506.23,1.625793,735980.0,17421
1509.41,1.62688,728040.0,17190
1512.58,1.61653,719703.0,17403
1515.75,1.63021,710982.0,16659
1518.92,1.63326,702409.0,16343
1522.08,1.62164,693280.0,16568
1525.24,1.6262,683935.0,16174
1529.44,1.62249,671492.0,16016
1532.59,1.61958,661352.0,15880
1535.73,1.62508,650841.0,15431
1538.87,1.6414,640156.0,14618
1542,1.636649,629036.0,14522
1545.13,1.63251,617445.0,14391
1548.26,1.6258,605527.0,14333
1551.38,1.63341,594133.0,13819
1554.49,1.62326,582894.0,13878
1557.61,1.6249,571271.0,13550
1561.75,1.62653,555940.0,13137
1564.85,1.621936,544812.0,13011
1567.95,1.62315,533402.0,12703
1571.05,1.61868,521915.0,12558
1574.14,1.61377,510788.0,12430
1577.22,1.61348,499607.0,12166
1580.3,1.62008,487992.0,11704
1583.38,1.60792,476265.0,11747
1586.45,1.62381,464618.0,11048
1589.52,1.61158,452782.0,11074
1593.6,1.62544,436897.0,10350
1596.66,1.59248,425551.0,10876
1599.71,1.60869,414191.0,10198
1602.76,1.63095,402799.0,9422
1605.81,1.62751,391352.0,9227
1608.85,1.60198,380811.0,9522
1611.89,1.60262,370076.0,9240
1614.92,1.62582,359798.0,8516
1617.95,1.60546,349165.0,8661
1620.97,1.62854,338717.0,7967
1624.99,1.60452,325435.0,8090
1628.01,1.61625,315463.0,7633
1631.02,1.62232,305570.0,7291
1634.02,1.62584,295762.0,7000
1637.02,1.61912,286306.0,6882
1640.02,1.62742,276696.0,6525
1643.01,1.63161,267004.0,6236
1646,1.6474,257531.0,5800
1648.98,1.61497,247817.0,6014
1651.96,1.61972,238547.0,5726
1655.93,1.63795,225092.0,5181
1658.89,1.62048,214425.0,5138
1661.86,1.60664,202241.0,5003
1664.82,1.633286,188046.0,4375
1667.78,1.65602,171566.0,3788
1670.73,1.62623,154101.0,3644
1673.67,1.6303,134892.0,3160
1676.62,1.62528,115325.0,2733
1679.56,1.54905,97255.0,2747
1682.49,1.62891,81017.0,1904
1686.4,1.62199,63571.0,1518
1689.32,1.9372,53566.0,619
1692.24,1.57552,45493.0,1209
1695.16,2.011411,39217.0,382
1698.07,2.4802,33537.0,111
1700.97,1.834752,29118.0,426