File: Data/LDPE/LDPE6_Column 1_20211230_112252.csv
***Scan Config Information***,,,,,,,***Reference Scan Information***,,,,,,,,
Scan Config Name:,Column 1,,,,,,Scan Config Name:,Built-in Factory Reference,,,,,,
Scan Config Type:,Slew,Num Section:,1,,,,Scan Config Type:,Slew,Num Section:,1,,,,,
Section Config Type:,Column,,,,,,Section Config Type:,Column,,,,,,,
Start Wavelength (nm):,900,,,,,,Start Wavelength (nm):,900.0,,,,,,
End Wavelength (nm):,1700,,,,,,End Wavelength (nm):,1700.0,,,,,,
Pattern Width (nm):,7.03,,,,,,Pattern Width (nm):,7.03,,,,,,,
Exposure (ms):,0.635,,,,,,Exposure (ms):,0.635,,,,,,,
Digital Resolution:,228,,,,,,Digital Resolution:,228,,,,,,,
Num Repeats:,6,,,,,,Num Repeats:,30,,,,,,,
PGA Gain:,64,,,,,,PGA Gain:,64,,,,,,
System Temp (C):,21.1,,,,,,System Temp (C):,24.17,,,,,,,
Humidity (%):,40.84,,,,,,Humidity (%):,30.0,,,,,,
Battery Capacity (%):,62,,,,,,Lamp Intensity:,2449,,,,,,,
Lamp Intensity:,2464,,,,,,Data Date-Time:,19/12/12T12:44:54,,,,,,
Data Date-Time:,18/1/1T7:2:11,,,,,,,,,,,,,,
Total Measurement Time in sec:,4.34,,,,,,,,,,,,,
***General Information***,,,,,,,***Calibration Coefficients***,,,,,,,,
Model Name:,NIR-S-G1,,,,,,Shift Vector Coefficients:,-8.44101,0.0554567,-8.45244e-05,,,,,
Serial Number:,947R055,95UB122GC0A947R055,,,,,Pixel to Wavelength Coefficients:,1795.87,-0.92014,-0.00023961,,,,,
APP Version:,2.16.7,,,,,,,,,,,,,
TIVA Version:,2.4.4,,,,,,***Lamp Usage * **,,,,,,,,
UUID:,de:67:c:88:67:2c:2d:21,,,,,,Total Time(HH:MM:SS):,12min 19sec ,,,,,,,
Main Board Version:,D,,,,,,***Device/Error Status***,,,,,,,,
Detector Board Version:,B,,,,,,Device Status:,0x00000031,,,,,,
,,,,,,,Error status:,0x00000000,Error Code:,0x00000000000000000000000000000000,,,,,
,,,,,,,,,Error Details:,Not Found,,,,,
***Scan Data***,,,,,,,,,,,,,,,
Wavelength (nm),Absorbance (AU),Reference Signal (unitless),Sample Signal (unitless)
901.841,2.20259,99968.0,627
905.754,1.926809,108993.0,1290
909.663,1.773273,118185.0,1992
913.568,1.90689,129285.0,1602
917.469,1.83895,143347.0,2077
921.365,2.00692,160437.0,1579
925.257,1.81279,180387.0,2776
929.144,1.81726,201426.0,3068
933.028,1.86943,220694.0,2981
936.906,1.81816,237501.0,3610
942.072,1.7864,256956.0,4202
945.94,1.81971,270636.0,4099
949.805,1.83084,283621.0,4187
953.665,1.789593,296982.0,4821
957.521,1.82587,310733.0,4640
961.373,1.79391,324587.0,5217
965.22,1.85295,339205.0,4759
969.063,1.82457,353669.0,5297
972.902,1.77145,368253.0,6233
976.736,1.77757,382531.0,6384
981.842,1.81456,399901.0,6129
985.666,1.80965,411528.0,6379
989.486,1.808018,422199.0,6569
993.302,1.81386,431172.0,6619
997.113,1.80768,438051.0,6821
1000.92,1.83149,444216.0,6548
1004.72,1.82979,449307.0,6649
1008.52,1.8284,453601.0,6734
1012.32,1.80252,456801.0,7198
1016.11,1.82244,459312.0,6913
1021.15,1.82767,461643.0,6865
1024.93,1.83776,463069.0,6728
1028.71,1.82729,463868.0,6904
1032.48,1.80877,464326.0,7212
1036.24,1.8296,466001.0,6899
1040.01,1.84241,466870.0,6711
1043.77,1.8477,467033.0,6632
1047.52,1.84575,467045.0,6662
1051.27,1.83015,467467.0,6912
1055.01,1.87015,467627.0,6306
1060,1.83985,468351.0,6772
1063.74,1.855575,469050.0,6541
1067.47,1.84975,469880.0,6641
1071.19,1.87293,471228.0,6314
1074.92,1.85755,472558.0,6560
1078.63,1.8575,474087.0,6582
1082.35,1.86911,476569.0,6442
1086.06,1.85182,479445.0,6744
1089.76,1.86322,481756.0,6601
1093.46,1.86659,485147.0,6596
1098.39,1.86644,489755.0,6661
1102.08,1.85769,493535.0,6849
1105.77,1.8896,497426.0,6414
1109.45,1.89169,501308.0,6433
1113.13,1.867527,505725.0,6861
1116.8,1.87771,509421.0,6751
1120.47,1.89692,513217.0,6507
1124.13,1.89566,517470.0,6580
1127.79,1.8961,521690.0,6627
1131.45,1.876466,526099.0,6992
1136.32,1.88294,531329.0,6957
1139.96,1.90598,535549.0,6650
1143.61,1.918525,539808.0,6512
1147.24,1.90634,543900.0,6748
1150.88,1.91772,547908.0,6622
1154.5,1.93171,552170.0,6462
1158.13,1.95427,556773.0,6186
1161.75,1.96937,561098.0,6021
1165.36,1.94819,565898.0,6376
1168.98,1.94744,571300.0,6448
1172.58,1.95565,576602.0,6386
1177.39,1.97545,584320.0,6183
1180.98,1.99313,589396.0,5988
1184.58,1.99677,596143.0,6006
1188.16,2.06278,602955.0,5218
1191.75,2.04634,609704.0,5480
1195.33,2.03563,617215.0,5686
1198.9,2.05705,624471.0,5476
1202.48,2.10468,632472.0,4970
1206.04,2.13554,640381.0,4687
1209.61,2.11376,648161.0,4988
1214.35,2.12336,659999.0,4968
1217.9,2.12577,668609.0,5005
1221.45,2.1151,677405.0,5197
1224.99,2.08399,686281.0,5656
1228.53,2.03832,695317.0,6366
1232.07,2.049721,704063.0,6279
1235.6,1.99836,713007.0,7157
1239.13,1.98785,721330.0,7418
1242.65,1.98967,730030.0,7476
1246.17,1.95554,737591.0,8171
1250.85,1.97448,746809.0,7920
1254.36,1.9636,753336.0,8192
1257.86,1.95752,759907.0,8380
1261.36,1.93788,766538.0,8844
1264.86,1.95717,774802.0,8551
1268.35,1.98349,784025.0,8144
1271.83,1.95336,794336.0,8844
1275.32,1.95666,804198.0,8886
1278.79,1.944912,813836.0,9239
1282.27,1.94593,823595.0,9328
1286.89,1.94381,834533.0,9498
1290.36,1.94226,842581.0,9624
1293.81,1.93872,849301.0,9780
1297.27,1.93703,856026.0,9896
1300.72,1.9436,862498.0,9821
1304.17,1.92656,868068.0,10280
1307.61,1.9341,872869.0,10159
1311.05,1.94448,877616.0,9973
1314.48,1.95765,881872.0,9722
1317.91,1.93588,885520.0,10264
1322.47,1.92962,888917.0,10453
1325.89,1.92659,891687.0,10559
1329.31,1.945943,894001.0,10125
1332.72,1.93209,895438.0,10470
1336.12,1.93957,896641.0,10305
1339.52,1.94611,897974.0,10166
1342.92,1.95745,898777.0,9913
1346.31,1.944034,898783.0,10224
1349.7,1.94745,898350.0,10139
1353.09,1.95934,896784.0,9848
1357.59,1.95871,895293.0,9846
1360.97,1.933532,892755.0,10404
1364.34,1.96539,890430.0,9643
1367.7,1.94245,888504.0,10144
1371.06,1.97091,885825.0,9472
1374.42,1.9798,881046.0,9230
1377.77,1.98517,874030.0,9044
1381.12,1.99291,865751.0,8800
1384.47,2.01274,857799.0,8330
1387.81,2.02291,851759.0,8080
1392.25,2.057633,846500.0,7413
1395.58,2.08435,843622.0,6947
1398.91,2.04685,841228.0,7552
1402.23,2.03549,838489.0,7727
1405.55,2.048687,836065.0,7474
1408.86,2.056683,834396.0,7323
1412.17,2.047482,832187.0,7460
1415.47,2.065201,830123.0,7144
1418.77,2.06337,828244.0,7158
1422.07,2.064398,827314.0,7133
1426.45,2.05807,826435.0,7230
1429.74,2.05559,825475.0,7263
1433.02,2.07033,824938.0,7016
1436.29,2.05479,823959.0,7263
1439.57,2.05502,823822.0,7258
1442.83,2.05354,823184.0,7277
1446.1,2.03759,821953.0,7538
1449.36,2.03641,821135.0,7551
1452.61,2.04041,819413.0,7466
1455.86,2.02979,817492.0,7633
1459.11,2.020663,814862.0,7770
1463.43,2.00565,811075.0,8006
1466.67,2.01928,807671.0,7726
1469.9,2.01228,803699.0,7813
1473.13,2.0036,799396.0,7928
1476.35,1.99795,795129.0,7989
1479.57,1.9939,790127.0,8013
1482.78,1.99261,784937.0,7984
1486,1.981,779544.0,8144
1489.2,2.0051,773733.0,7647
1492.4,1.98683,767463.0,7911
1496.67,1.989488,758614.0,7772
1499.86,1.98356,751802.0,7808
1503.04,1.978984,744297.0,7812
1506.23,1.9836,735980.0,7643
1509.41,1.99824,728040.0,7310
1512.58,1.97117,719703.0,7691
1515.75,1.99296,710982.0,7226
1518.92,1.98001,702409.0,7355
1522.08,1.9866,693280.0,7150
1525.24,1.97181,683935.0,7298
1529.44,1.99015,671492.0,6869
1532.59,1.96135,661352.0,7229
1535.73,1.98301,650841.0,6768
1538.87,1.9718,640156.0,6831
1542,1.9537,629036.0,6998
1545.13,1.97092,617445.0,6602
1548.26,1.97036,605527.0,6483
1551.38,1.97337,594133.0,6317
1554.49,1.98097,582894.0,6090
1557.61,1.968391,571271.0,6144
1561.75,1.98847,555940.0,5709
1564.85,1.99454,544812.0,5517
1567.95,1.95968,533402.0,5853
1571.05,1.96524,521915.0,5654
1574.14,1.95183,510788.0,5707
1577.22,1.96768,499607.0,5382
1580.3,1.962501,487992.0,5320
1583.38,1.98202,476265.0,4964
1586.45,2.02681,464618.0,4368
1589.52,1.979287,452782.0,4749
1593.6,1.99251,436897.0,4445
1596.66,1.95778,425551.0,4690
1599.71,1.985554,414191.0,4282
1602.76,1.99571,402799.0,4068
1605.81,1.955278,391352.0,4338
1608.85,1.935189,380811.0,4421
1611.89,2.01635,370076.0,3564
1614.92,1.97309,359798.0,3828
1617.95,2.047209,349165.0,3132
1620.97,1.97729,338717.0,3569
1624.99,2.01984,325435.0,3109
1628.01,1.97938,315463.0,3308
1631.02,1.9857,305570.0,3158
1634.02,2.01595,295762.0,2851
1637.02,1.95605,286306.0,3168
1640.02,2.01435,276696.0,2677
1643.01,1.96039,267004.0,2925
1646,1.9534,257531.0,2867
1648.98,2.04195,247817.0,2250
1651.96,1.98505,238547.0,2469
1655.93,2.05878,225092.0,1966
1658.89,2.12042,214425.0,1625
1661.86,2.06358,202241.0,1747
1664.82,2.0219,188046.0,1788
1667.78,1.99313,171566.0,1743
1670.73,2.13859,154101.0,1120
1673.67,2.418179,134892.0,515
1676.62,2.17883,115325.0,764
1679.56,2.315814,97255.0,470
1682.49,2.5089,81017.0,251
1686.4,NaN,63571.0,-222
1689.32,NaN,53566.0,-367
1692.24,2.44843,45493.0,162
1695.16,NaN,39217.0,-97
1698.07,NaN,33537.0,-255
1700.97,NaN,29118.0,-372