File: Data/LDPE/LDPE18_Column 1_20211230_112549.csv
***Scan Config Information***,,,,,,,***Reference Scan Information***,,,,,,,,
Scan Config Name:,Column 1,,,,,,Scan Config Name:,Built-in Factory Reference,,,,,,
Scan Config Type:,Slew,Num Section:,1,,,,Scan Config Type:,Slew,Num Section:,1,,,,,
Section Config Type:,Column,,,,,,Section Config Type:,Column,,,,,,,
Start Wavelength (nm):,900,,,,,,Start Wavelength (nm):,900.0,,,,,,
End Wavelength (nm):,1700,,,,,,End Wavelength (nm):,1700.0,,,,,,
Pattern Width (nm):,7.03,,,,,,Pattern Width (nm):,7.03,,,,,,,
Exposure (ms):,0.635,,,,,,Exposure (ms):,0.635,,,,,,,
Digital Resolution:,228,,,,,,Digital Resolution:,228,,,,,,,
Num Repeats:,6,,,,,,Num Repeats:,30,,,,,,,
PGA Gain:,64,,,,,,PGA Gain:,64,,,,,,
System Temp (C):,23.89,,,,,,System Temp (C):,24.17,,,,,,,
Humidity (%):,40.61,,,,,,Humidity (%):,30.0,,,,,,
Battery Capacity (%):,59,,,,,,Lamp Intensity:,2449,,,,,,,
Lamp Intensity:,2506,,,,,,Data Date-Time:,19/12/12T12:44:54,,,,,,
Data Date-Time:,18/1/1T7:5:7,,,,,,,,,,,,,,
Total Measurement Time in sec:,5.48,,,,,,,,,,,,,
***General Information***,,,,,,,***Calibration Coefficients***,,,,,,,,
Model Name:,NIR-S-G1,,,,,,Shift Vector Coefficients:,-8.44101,0.0554567,-8.45244e-05,,,,,
Serial Number:,947R055,95UB122GC0A947R055,,,,,Pixel to Wavelength Coefficients:,1795.87,-0.92014,-0.00023961,,,,,
APP Version:,2.16.7,,,,,,,,,,,,,
TIVA Version:,2.4.4,,,,,,***Lamp Usage * **,,,,,,,,
UUID:,de:67:c:88:67:2c:2d:21,,,,,,Total Time(HH:MM:SS):,12min 45sec ,,,,,,,
Main Board Version:,D,,,,,,***Device/Error Status***,,,,,,,,
Detector Board Version:,B,,,,,,Device Status:,0x00000031,,,,,,
,,,,,,,Error status:,0x00000000,Error Code:,0x00000000000000000000000000000000,,,,,
,,,,,,,,,Error Details:,Not Found,,,,,
***Scan Data***,,,,,,,,,,,,,,,
Wavelength (nm),Absorbance (AU),Reference Signal (unitless),Sample Signal (unitless)
901.841,1.45344,99968.0,3519
905.754,1.42261,108993.0,4119
909.663,1.4398,118185.0,4293
913.568,1.4202,129285.0,4913
917.469,1.42714,143347.0,5361
921.365,1.418624,160437.0,6119
925.257,1.44698,180387.0,6445
929.144,1.44951,201426.0,7155
933.028,1.4157,220694.0,8474
936.906,1.41079,237501.0,9223
942.072,1.4181,256956.0,9812
945.94,1.42187,270636.0,10245
949.805,1.43192,283621.0,10491
953.665,1.42177,296982.0,11245
957.521,1.42062,310733.0,11797
961.373,1.42726,324587.0,12136
965.22,1.42078,339205.0,12873
969.063,1.41836,353669.0,13497
972.902,1.41665,368253.0,14109
976.736,1.42998,382531.0,14213
981.842,1.41746,399901.0,15293
985.666,1.42261,411528.0,15552
989.486,1.42851,422199.0,15740
993.302,1.43872,431172.0,15701
997.113,1.44759,438051.0,15629
1000.92,1.43241,444216.0,16413
1004.72,1.443,449307.0,16201
1008.52,1.44856,453601.0,16148
1012.32,1.44377,456801.0,16442
1016.11,1.45021,459312.0,16289
1021.15,1.458723,461643.0,16054
1024.93,1.45332,463069.0,16305
1028.71,1.4528,463868.0,16353
1032.48,1.46251,464326.0,16007
1036.24,1.46549,466001.0,15955
1040.01,1.46922,466870.0,15848
1043.77,1.46198,467033.0,16120
1047.52,1.48195,467045.0,15396
1051.27,1.46876,467467.0,15885
1055.01,1.4765,467627.0,15610
1060,1.47753,468351.0,15597
1063.74,1.47659,469050.0,15654
1067.47,1.489173,469880.0,15234
1071.19,1.48019,471228.0,15597
1074.92,1.48323,472558.0,15532
1078.63,1.48696,474087.0,15449
1082.35,1.48245,476569.0,15692
1086.06,1.50471,479445.0,14998
1089.76,1.48696,481756.0,15699
1093.46,1.50661,485147.0,15110
1098.39,1.48779,489755.0,15929
1102.08,1.51228,493535.0,15172
1105.77,1.49541,497426.0,15897
1109.45,1.49363,501308.0,16087
1113.13,1.50009,505725.0,15989
1116.8,1.505161,509421.0,15919
1120.47,1.50926,513217.0,15887
1124.13,1.50736,517470.0,16089
1127.79,1.51389,521690.0,15978
1131.45,1.51578,526099.0,16043
1136.32,1.51894,531329.0,16085
1139.96,1.52487,535549.0,15993
1143.61,1.5259,539808.0,16082
1147.24,1.53722,543900.0,15787
1150.88,1.53706,547908.0,15909
1154.5,1.5413,552170.0,15877
1158.13,1.54647,556773.0,15820
1161.75,1.55533,561098.0,15621
1165.36,1.57979,565898.0,14892
1168.98,1.57448,571300.0,15219
1172.58,1.58865,576602.0,14867
1177.39,1.59137,584320.0,14972
1180.98,1.59965,589396.0,14817
1184.58,1.61488,596143.0,14470
1188.16,1.62888,602955.0,14171
1191.75,1.63578,609704.0,14104
1195.33,1.64533,617215.0,13967
1198.9,1.68007,624471.0,13045
1202.48,1.70413,632472.0,12500
1206.04,1.69841,640381.0,12824
1209.61,1.7284,648161.0,12114
1214.35,1.73436,659999.0,12167
1217.9,1.7392,668609.0,12189
1221.45,1.73265,677405.0,12537
1224.99,1.70178,686281.0,13637
1228.53,1.65911,695317.0,15243
1232.07,1.64106,704063.0,16090
1235.6,1.62577,713007.0,16878
1239.13,1.6109,721330.0,17670
1242.65,1.602054,730030.0,18251
1246.17,1.59338,737591.0,18812
1250.85,1.5897,746809.0,19209
1254.36,1.58863,753336.0,19425
1257.86,1.57733,759907.0,20111
1261.36,1.57635,766538.0,20332
1264.86,1.564168,774802.0,21136
1268.35,1.56509,784025.0,21342
1271.83,1.57381,794336.0,21193
1275.32,1.56844,804198.0,21723
1278.79,1.57478,813836.0,21665
1282.27,1.573449,823595.0,21992
1286.89,1.5672,834533.0,22607
1290.36,1.5697,842581.0,22694
1293.81,1.56616,849301.0,23062
1297.27,1.574857,856026.0,22784
1300.72,1.57606,862498.0,22893
1304.17,1.56819,868068.0,23462
1307.61,1.57194,872869.0,23389
1311.05,1.565052,877616.0,23892
1314.48,1.56794,881872.0,23849
1317.91,1.56681,885520.0,24010
1322.47,1.57166,888917.0,23834
1325.89,1.56982,891687.0,24010
1329.31,1.57648,894001.0,23706
1332.72,1.57119,895438.0,24035
1336.12,1.56733,896641.0,24282
1339.52,1.57387,897974.0,23955
1342.92,1.57804,898777.0,23747
1346.31,1.574694,898783.0,23931
1349.7,1.57318,898350.0,24003
1353.09,1.56665,896784.0,24324
1357.59,1.58534,895293.0,23261
1360.97,1.58457,892755.0,23236
1364.34,1.58074,890430.0,23381
1367.7,1.59615,888504.0,22517
1371.06,1.59753,885825.0,22378
1374.42,1.60325,881046.0,21966
1377.77,1.61235,874030.0,21339
1381.12,1.62926,865751.0,20330
1384.47,1.63901,857799.0,19696
1387.81,1.660617,851759.0,18608
1392.25,1.68598,846500.0,17444
1395.58,1.6848,843622.0,17432
1398.91,1.683442,841228.0,17437
1402.23,1.65903,838489.0,18385
1405.55,1.663938,836065.0,18126
1408.86,1.67739,834396.0,17538
1412.17,1.69077,832187.0,16961
1415.47,1.69666,830123.0,16691
1418.77,1.68478,828244.0,17115
1422.07,1.689347,827314.0,16917
1426.45,1.69017,826435.0,16867
1429.74,1.670427,825475.0,17631
1433.02,1.68454,824938.0,17056
1436.29,1.68119,823959.0,17168
1439.57,1.67508,823822.0,17408
1442.83,1.67525,823184.0,17388
1446.1,1.67238,821953.0,17477
1449.36,1.66627,821135.0,17707
1452.61,1.66347,819413.0,17784
1455.86,1.64176,817492.0,18652
1459.11,1.64589,814862.0,18416
1463.43,1.63801,811075.0,18666
1466.67,1.63098,807671.0,18891
1469.9,1.62584,803699.0,19022
1473.13,1.6336,799396.0,18585
1476.35,1.61551,795129.0,19272
1479.57,1.61507,790127.0,19170
1482.78,1.61918,784937.0,18865
1486,1.6114,779544.0,19074
1489.2,1.60979,773733.0,19002
1492.4,1.60275,767463.0,19156
1496.67,1.60626,758614.0,18783
1499.86,1.60846,751802.0,18520
1503.04,1.60816,744297.0,18348
1506.23,1.60737,735980.0,18176
1509.41,1.605,728040.0,18078
1512.58,1.60157,719703.0,18013
1515.75,1.60588,710982.0,17619
1518.92,1.599157,702409.0,17678
1522.08,1.58699,693280.0,17944
1525.24,1.60042,683935.0,17163
1529.44,1.60623,671492.0,16627
1532.59,1.603212,661352.0,16490
1535.73,1.61339,650841.0,15852
1538.87,1.60593,640156.0,15862
1542,1.61214,629036.0,15365
1545.13,1.60302,617445.0,15402
1548.26,1.60402,605527.0,15070
1551.38,1.59436,594133.0,15119
1554.49,1.58791,582894.0,15055
1557.61,1.59706,571271.0,14447
1561.75,1.58199,555940.0,14556
1564.85,1.58589,544812.0,14137
1567.95,1.58006,533402.0,14028
1571.05,1.58672,521915.0,13517
1574.14,1.584,510788.0,13312
1577.22,1.58255,499607.0,13064
1580.3,1.58656,487992.0,12643
1583.38,1.58195,476265.0,12471
1586.45,1.580416,464618.0,12209
1589.52,1.57667,452782.0,12001
1593.6,1.57904,436897.0,11517
1596.66,1.58859,425551.0,10974
1599.71,1.58213,414191.0,10841
1602.76,1.58394,402799.0,10499
1605.81,1.58589,391352.0,10155
1608.85,1.57579,380811.0,10114
1611.89,1.57459,370076.0,9856
1614.92,1.574376,359798.0,9587
1617.95,1.57938,349165.0,9197
1620.97,1.56737,338717.0,9172
1624.99,1.58664,325435.0,8430
1628.01,1.56168,315463.0,8655
1631.02,1.587099,305570.0,7907
1634.02,1.57003,295762.0,7960
1637.02,1.5859,286306.0,7429
1640.02,1.60271,276696.0,6907
1643.01,1.5826,267004.0,6981
1646,1.58307,257531.0,6726
1648.98,1.58606,247817.0,6428
1651.96,1.60584,238547.0,5912
1655.93,1.59254,225092.0,5752
1658.89,1.59289,214425.0,5475
1661.86,1.57573,202241.0,5372
1664.82,1.63647,188046.0,4343
1667.78,1.62048,171566.0,4111
1670.73,1.5825,154101.0,4030
1673.67,1.603,134892.0,3365
1676.62,1.62976,115325.0,2705
1679.56,1.56173,97255.0,2668
1682.49,1.527461,81017.0,2405
1686.4,1.56622,63571.0,1726
1689.32,1.753,53566.0,946
1692.24,1.68159,45493.0,947
1695.16,1.581059,39217.0,1029
1698.07,1.78595,33537.0,549
1700.97,1.54982,29118.0,821