File: Data/LDPE/LDPE12_Column 1_20211230_112418.csv
***Scan Config Information***,,,,,,,***Reference Scan Information***,,,,,,,,
Scan Config Name:,Column 1,,,,,,Scan Config Name:,Built-in Factory Reference,,,,,,
Scan Config Type:,Slew,Num Section:,1,,,,Scan Config Type:,Slew,Num Section:,1,,,,,
Section Config Type:,Column,,,,,,Section Config Type:,Column,,,,,,,
Start Wavelength (nm):,900,,,,,,Start Wavelength (nm):,900.0,,,,,,
End Wavelength (nm):,1700,,,,,,End Wavelength (nm):,1700.0,,,,,,
Pattern Width (nm):,7.03,,,,,,Pattern Width (nm):,7.03,,,,,,,
Exposure (ms):,0.635,,,,,,Exposure (ms):,0.635,,,,,,,
Digital Resolution:,228,,,,,,Digital Resolution:,228,,,,,,,
Num Repeats:,6,,,,,,Num Repeats:,30,,,,,,,
PGA Gain:,64,,,,,,PGA Gain:,64,,,,,,
System Temp (C):,22.57,,,,,,System Temp (C):,24.17,,,,,,,
Humidity (%):,40.81,,,,,,Humidity (%):,30.0,,,,,,
Battery Capacity (%):,61,,,,,,Lamp Intensity:,2449,,,,,,,
Lamp Intensity:,2485,,,,,,Data Date-Time:,19/12/12T12:44:54,,,,,,
Data Date-Time:,18/1/1T7:3:37,,,,,,,,,,,,,,
Total Measurement Time in sec:,4.257,,,,,,,,,,,,,
***General Information***,,,,,,,***Calibration Coefficients***,,,,,,,,
Model Name:,NIR-S-G1,,,,,,Shift Vector Coefficients:,-8.44101,0.0554567,-8.45244e-05,,,,,
Serial Number:,947R055,95UB122GC0A947R055,,,,,Pixel to Wavelength Coefficients:,1795.87,-0.92014,-0.00023961,,,,,
APP Version:,2.16.7,,,,,,,,,,,,,
TIVA Version:,2.4.4,,,,,,***Lamp Usage * **,,,,,,,,
UUID:,de:67:c:88:67:2c:2d:21,,,,,,Total Time(HH:MM:SS):,12min 32sec ,,,,,,,
Main Board Version:,D,,,,,,***Device/Error Status***,,,,,,,,
Detector Board Version:,B,,,,,,Device Status:,0x00000031,,,,,,
,,,,,,,Error status:,0x00000000,Error Code:,0x00000000000000000000000000000000,,,,,
,,,,,,,,,Error Details:,Not Found,,,,,
***Scan Data***,,,,,,,,,,,,,,,
Wavelength (nm),Absorbance (AU),Reference Signal (unitless),Sample Signal (unitless)
901.841,1.35998,99968.0,4364
905.754,1.38044,108993.0,4539
909.663,1.40315,118185.0,4671
913.568,1.39031,129285.0,5263
917.469,1.39469,143347.0,5777
921.365,1.442401,160437.0,5793
925.257,1.43633,180387.0,6605
929.144,1.45759,201426.0,7023
933.028,1.424294,220694.0,8308
936.906,1.42725,237501.0,8880
942.072,1.43067,256956.0,9532
945.94,1.438773,270636.0,9854
949.805,1.41563,283621.0,10892
953.665,1.42772,296982.0,11092
957.521,1.41252,310733.0,12019
961.373,1.42747,324587.0,12130
965.22,1.42431,339205.0,12769
969.063,1.4377,353669.0,12909
972.902,1.43749,368253.0,13448
976.736,1.43981,382531.0,13895
981.842,1.43671,399901.0,14630
985.666,1.43753,411528.0,15027
989.486,1.43788,422199.0,15404
993.302,1.44144,431172.0,15603
997.113,1.44496,438051.0,15724
1000.92,1.43816,444216.0,16197
1004.72,1.44255,449307.0,16218
1008.52,1.45832,453601.0,15789
1012.32,1.46311,456801.0,15726
1016.11,1.45388,459312.0,16152
1021.15,1.460648,461643.0,15983
1024.93,1.46335,463069.0,15933
1028.71,1.47724,463868.0,15458
1032.48,1.470868,464326.0,15702
1036.24,1.480387,466001.0,15417
1040.01,1.48044,466870.0,15444
1043.77,1.47608,467033.0,15605
1047.52,1.47396,467045.0,15682
1051.27,1.47973,467467.0,15489
1055.01,1.47036,467627.0,15832
1060,1.48032,468351.0,15497
1063.74,1.48266,469050.0,15437
1067.47,1.48252,469880.0,15469
1071.19,1.493708,471228.0,15119
1074.92,1.48511,472558.0,15465
1078.63,1.4937,474087.0,15211
1082.35,1.49557,476569.0,15225
1086.06,1.4939,479445.0,15376
1089.76,1.49836,481756.0,15292
1093.46,1.500728,485147.0,15316
1098.39,1.5136,489755.0,15010
1102.08,1.51062,493535.0,15230
1105.77,1.50817,497426.0,15437
1109.45,1.50773,501308.0,15573
1113.13,1.51071,505725.0,15603
1116.8,1.51717,509421.0,15485
1120.47,1.52143,513217.0,15448
1124.13,1.5199,517470.0,15631
1127.79,1.52033,521690.0,15743
1131.45,1.52783,526099.0,15604
1136.32,1.52866,531329.0,15729
1139.96,1.53735,535549.0,15540
1143.61,1.5335,539808.0,15803
1147.24,1.53582,543900.0,15838
1150.88,1.53037,547908.0,16156
1154.5,1.547392,552170.0,15656
1158.13,1.554367,556773.0,15535
1161.75,1.55916,561098.0,15484
1165.36,1.57316,565898.0,15121
1168.98,1.59505,571300.0,14515
1172.58,1.60044,576602.0,14469
1177.39,1.57989,584320.0,15373
1180.98,1.6062,589396.0,14595
1184.58,1.62026,596143.0,14292
1188.16,1.6212,602955.0,14424
1191.75,1.63091,609704.0,14263
1195.33,1.66711,617215.0,13284
1198.9,1.67349,624471.0,13244
1202.48,1.69437,632472.0,12784
1206.04,1.72276,640381.0,12125
1209.61,1.74502,648161.0,11659
1214.35,1.75232,659999.0,11674
1217.9,1.75014,668609.0,11886
1221.45,1.71938,677405.0,12926
1224.99,1.7082,686281.0,13437
1228.53,1.677592,695317.0,14608
1232.07,1.661673,704063.0,15344
1235.6,1.63968,713007.0,16346
1239.13,1.61768,721330.0,17396
1242.65,1.61768,730030.0,17606
1246.17,1.60017,737591.0,18520
1250.85,1.60969,746809.0,18345
1254.36,1.59215,753336.0,19268
1257.86,1.58791,759907.0,19627
1261.36,1.60651,766538.0,18968
1264.86,1.59764,774802.0,19568
1268.35,1.585147,784025.0,20379
1271.83,1.59461,794336.0,20202
1275.32,1.58822,804198.0,20756
1278.79,1.59522,813836.0,20669
1282.27,1.59991,823595.0,20692
1286.89,1.58784,834533.0,21558
1290.36,1.59621,842581.0,21350
1293.81,1.59001,849301.0,21830
1297.27,1.58735,856026.0,22138
1300.72,1.59383,862498.0,21975
1304.17,1.59322,868068.0,22148
1307.61,1.59333,872869.0,22265
1311.05,1.59327,877616.0,22389
1314.48,1.58986,881872.0,22675
1317.91,1.59125,885520.0,22696
1322.47,1.5961,888917.0,22530
1325.89,1.59718,891687.0,22544
1329.31,1.595293,894001.0,22701
1332.72,1.5982,895438.0,22586
1336.12,1.6066,896641.0,22183
1339.52,1.59341,897974.0,22901
1342.92,1.60519,898777.0,22308
1346.31,1.5958,898783.0,22796
1349.7,1.599587,898350.0,22587
1353.09,1.60116,896784.0,22466
1357.59,1.61012,895293.0,21971
1360.97,1.61525,892755.0,21651
1364.34,1.618294,890430.0,21444
1367.7,1.6259,888504.0,21026
1371.06,1.622284,885825.0,21138
1374.42,1.63988,881046.0,20189
1377.77,1.64182,874030.0,19939
1381.12,1.65127,865751.0,19325
1384.47,1.67039,857799.0,18323
1387.81,1.6927,851759.0,17283
1392.25,1.71215,846500.0,16424
1395.58,1.72584,843622.0,15860
1398.91,1.71374,841228.0,16262
1402.23,1.69448,838489.0,16944
1405.55,1.699,836065.0,16720
1408.86,1.70271,834396.0,16545
1412.17,1.7124,832187.0,16137
1415.47,1.72432,830123.0,15661
1418.77,1.72872,828244.0,15468
1422.07,1.71352,827314.0,16001
1426.45,1.71814,826435.0,15815
1429.74,1.71378,825475.0,15956
1433.02,1.71016,824938.0,16079
1436.29,1.71585,823959.0,15851
1439.57,1.71397,823822.0,15917
1442.83,1.71051,823184.0,16032
1446.1,1.70975,821953.0,16036
1449.36,1.69976,821135.0,16393
1452.61,1.6946,819413.0,16554
1455.86,1.68805,817492.0,16766
1459.11,1.680993,814862.0,16986
1463.43,1.67127,811075.0,17290
1466.67,1.67161,807671.0,17204
1469.9,1.65294,803699.0,17871
1473.13,1.65881,799396.0,17537
1476.35,1.66262,795129.0,17291
1479.57,1.64967,790127.0,17702
1482.78,1.65649,784937.0,17312
1486,1.6491,779544.0,17488
1489.2,1.644413,773733.0,17546
1492.4,1.648747,767463.0,17231
1496.67,1.64482,758614.0,17187
1499.86,1.65266,751802.0,16728
1503.04,1.64422,744297.0,16886
1506.23,1.64689,735980.0,16595
1509.41,1.638322,728040.0,16743
1512.58,1.64364,719703.0,16350
1515.75,1.64205,710982.0,16211
1518.92,1.64873,702409.0,15771
1522.08,1.64297,693280.0,15774
1525.24,1.65101,683935.0,15276
1529.44,1.63893,671492.0,15421
1532.59,1.63387,661352.0,15366
1535.73,1.63979,650841.0,14917
1538.87,1.64423,640156.0,14523
1542,1.65908,629036.0,13791
1545.13,1.66649,617445.0,13308
1548.26,1.642,605527.0,13808
1551.38,1.63137,594133.0,13884
1554.49,1.63481,582894.0,13514
1557.61,1.63597,571271.0,13209
1561.75,1.62268,555940.0,13254
1564.85,1.63337,544812.0,12673
1567.95,1.64009,533402.0,12217
1571.05,1.62833,521915.0,12282
1574.14,1.61598,510788.0,12367
1577.22,1.62981,499607.0,11717
1580.3,1.62545,487992.0,11560
1583.38,1.62209,476265.0,11370
1586.45,1.636375,464618.0,10733
1589.52,1.63586,452782.0,10472
1593.6,1.62122,436897.0,10451
1596.66,1.62519,425551.0,10087
1599.71,1.635382,414191.0,9590
1602.76,1.619572,402799.0,9672
1605.81,1.61912,391352.0,9407
1608.85,1.62095,380811.0,9115
1611.89,1.63288,370076.0,8618
1614.92,1.608331,359798.0,8866
1617.95,1.63177,349165.0,8152
1620.97,1.63646,338717.0,7823
1624.99,1.62037,325435.0,7800
1628.01,1.61974,315463.0,7572
1631.02,1.60168,305570.0,7646
1634.02,1.61204,295762.0,7226
1637.02,1.62298,286306.0,6821
1640.02,1.63481,276696.0,6415
1643.01,1.60148,267004.0,6684
1646,1.628142,257531.0,6063
1648.98,1.64664,247817.0,5591
1651.96,1.64502,238547.0,5402
1655.93,1.62166,225092.0,5379
1658.89,1.65031,214425.0,4797
1661.86,1.64834,202241.0,4545
1664.82,1.61085,188046.0,4607
1667.78,1.62112,171566.0,4105
1670.73,1.60997,154101.0,3783
1673.67,1.61438,134892.0,3278
1676.62,1.59654,115325.0,2920
1679.56,1.60446,97255.0,2418
1682.49,1.66356,81017.0,1758
1686.4,1.763845,63571.0,1095
1689.32,1.60996,53566.0,1315
1692.24,1.69938,45493.0,909
1695.16,1.708679,39217.0,767
1698.07,1.79717,33537.0,535
1700.97,1.7532,29118.0,514