File: Data/LDPE/LDPE14_Column 1_20211230_112450.csv
***Scan Config Information***,,,,,,,***Reference Scan Information***,,,,,,,,
Scan Config Name:,Column 1,,,,,,Scan Config Name:,Built-in Factory Reference,,,,,,
Scan Config Type:,Slew,Num Section:,1,,,,Scan Config Type:,Slew,Num Section:,1,,,,,
Section Config Type:,Column,,,,,,Section Config Type:,Column,,,,,,,
Start Wavelength (nm):,900,,,,,,Start Wavelength (nm):,900.0,,,,,,
End Wavelength (nm):,1700,,,,,,End Wavelength (nm):,1700.0,,,,,,
Pattern Width (nm):,7.03,,,,,,Pattern Width (nm):,7.03,,,,,,,
Exposure (ms):,0.635,,,,,,Exposure (ms):,0.635,,,,,,,
Digital Resolution:,228,,,,,,Digital Resolution:,228,,,,,,,
Num Repeats:,6,,,,,,Num Repeats:,30,,,,,,,
PGA Gain:,64,,,,,,PGA Gain:,64,,,,,,
System Temp (C):,23.05,,,,,,System Temp (C):,24.17,,,,,,,
Humidity (%):,40.67,,,,,,Humidity (%):,30.0,,,,,,
Battery Capacity (%):,60,,,,,,Lamp Intensity:,2449,,,,,,,
Lamp Intensity:,2492,,,,,,Data Date-Time:,19/12/12T12:44:54,,,,,,
Data Date-Time:,18/1/1T7:4:9,,,,,,,,,,,,,,
Total Measurement Time in sec:,5.147,,,,,,,,,,,,,
***General Information***,,,,,,,***Calibration Coefficients***,,,,,,,,
Model Name:,NIR-S-G1,,,,,,Shift Vector Coefficients:,-8.44101,0.0554567,-8.45244e-05,,,,,
Serial Number:,947R055,95UB122GC0A947R055,,,,,Pixel to Wavelength Coefficients:,1795.87,-0.92014,-0.00023961,,,,,
APP Version:,2.16.7,,,,,,,,,,,,,
TIVA Version:,2.4.4,,,,,,***Lamp Usage * **,,,,,,,,
UUID:,de:67:c:88:67:2c:2d:21,,,,,,Total Time(HH:MM:SS):,12min 37sec ,,,,,,,
Main Board Version:,D,,,,,,***Device/Error Status***,,,,,,,,
Detector Board Version:,B,,,,,,Device Status:,0x00000031,,,,,,
,,,,,,,Error status:,0x00000000,Error Code:,0x00000000000000000000000000000000,,,,,
,,,,,,,,,Error Details:,Not Found,,,,,
***Scan Data***,,,,,,,,,,,,,,,
Wavelength (nm),Absorbance (AU),Reference Signal (unitless),Sample Signal (unitless)
901.841,1.51556,99968.0,3050
905.754,1.58134,108993.0,2858
909.663,1.52393,118185.0,3537
913.568,1.55718,129285.0,3584
917.469,1.55422,143347.0,4001
921.365,1.51017,160437.0,4956
925.257,1.52389,180387.0,5399
929.144,1.56407,201426.0,5496
933.028,1.536797,220694.0,6412
936.906,1.5268,237501.0,7061
942.072,1.537,256956.0,7462
945.94,1.54185,270636.0,7772
949.805,1.52276,283621.0,8511
953.665,1.5278,296982.0,8809
957.521,1.52475,310733.0,9282
961.373,1.52911,324587.0,9599
965.22,1.53404,339205.0,9918
969.063,1.520799,353669.0,10661
972.902,1.54302,368253.0,10547
976.736,1.52698,382531.0,11368
981.842,1.54088,399901.0,11510
985.666,1.53374,411528.0,12041
989.486,1.53466,422199.0,12327
993.302,1.53959,431172.0,12447
997.113,1.54555,438051.0,12473
1000.92,1.55491,444216.0,12379
1004.72,1.549698,449307.0,12672
1008.52,1.55855,453601.0,12535
1012.32,1.54716,456801.0,12959
1016.11,1.56767,459312.0,12429
1021.15,1.56411,461643.0,12595
1024.93,1.5649,463069.0,12611
1028.71,1.57667,463868.0,12295
1032.48,1.56487,464326.0,12646
1036.24,1.58061,466001.0,12240
1040.01,1.57204,466870.0,12507
1043.77,1.58075,467033.0,12263
1047.52,1.57618,467045.0,12393
1051.27,1.57552,467467.0,12423
1055.01,1.56117,467627.0,12845
1060,1.58393,468351.0,12208
1063.74,1.58604,469050.0,12167
1067.47,1.59179,469880.0,12028
1071.19,1.59988,471228.0,11840
1074.92,1.57963,472558.0,12440
1078.63,1.5884,474087.0,12231
1082.35,1.59858,476569.0,12010
1086.06,1.59838,479445.0,12088
1089.76,1.61212,481756.0,11768
1093.46,1.61263,485147.0,11837
1098.39,1.61232,489755.0,11958
1102.08,1.6119,493535.0,12062
1105.77,1.60591,497426.0,12326
1109.45,1.62576,501308.0,11867
1113.13,1.61496,505725.0,12273
1116.8,1.60591,509421.0,12623
1120.47,1.62291,513217.0,12229
1124.13,1.60115,517470.0,12964
1127.79,1.62158,521690.0,12469
1131.45,1.62284,526099.0,12538
1136.32,1.6325,531329.0,12384
1139.96,1.62712,535549.0,12638
1143.61,1.62054,539808.0,12933
1147.24,1.64073,543900.0,12439
1150.88,1.645181,547908.0,12403
1154.5,1.64764,552170.0,12429
1158.13,1.6657,556773.0,12022
1161.75,1.674588,561098.0,11870
1165.36,1.67781,565898.0,11883
1168.98,1.6787,571300.0,11972
1172.58,1.6792,576602.0,12069
1177.39,1.69381,584320.0,11826
1180.98,1.70839,589396.0,11535
1184.58,1.71963,596143.0,11369
1188.16,1.73406,602955.0,11123
1191.75,1.7517,609704.0,10800
1195.33,1.74794,617215.0,11028
1198.9,1.78428,624471.0,10262
1202.48,1.79274,632472.0,10193
1206.04,1.81752,640381.0,9748
1209.61,1.85298,648161.0,9093
1214.35,1.84595,659999.0,9410
1217.9,1.840915,668609.0,9644
1221.45,1.81107,677405.0,10466
1224.99,1.80207,686281.0,10825
1228.53,1.78167,695317.0,11495
1232.07,1.75552,704063.0,12362
1235.6,1.752482,713007.0,12607
1239.13,1.70725,721330.0,14154
1242.65,1.70413,730030.0,14428
1246.17,1.69422,737591.0,14914
1250.85,1.69799,746809.0,14970
1254.36,1.69801,753336.0,15100
1257.86,1.695445,759907.0,15322
1261.36,1.68783,766538.0,15729
1264.86,1.6766,774802.0,16315
1268.35,1.68506,784025.0,16191
1271.83,1.67532,794336.0,16776
1275.32,1.66656,804198.0,17330
1278.79,1.67777,813836.0,17091
1282.27,1.67757,823595.0,17304
1286.89,1.68139,834533.0,17380
1290.36,1.684389,842581.0,17427
1293.81,1.68436,849301.0,17567
1297.27,1.67572,856026.0,18062
1300.72,1.67986,862498.0,18026
1304.17,1.67513,868068.0,18341
1307.61,1.67997,872869.0,18238
1311.05,1.68128,877616.0,18282
1314.48,1.68376,881872.0,18266
1317.91,1.67434,885520.0,18744
1322.47,1.67512,888917.0,18782
1325.89,1.67907,891687.0,18670
1329.31,1.67568,894001.0,18865
1332.72,1.67353,895438.0,18989
1336.12,1.67987,896641.0,18739
1339.52,1.67485,897974.0,18985
1342.92,1.67444,898777.0,19020
1346.31,1.68058,898783.0,18753
1349.7,1.68174,898350.0,18694
1353.09,1.67855,896784.0,18799
1357.59,1.68407,895293.0,18531
1360.97,1.68003,892755.0,18651
1364.34,1.69505,890430.0,17970
1367.7,1.69522,888504.0,17924
1371.06,1.70344,885825.0,17535
1374.42,1.709849,881046.0,17185
1377.77,1.72536,874030.0,16450
1381.12,1.73382,865751.0,15980
1384.47,1.74733,857799.0,15348
1387.81,1.76919,851759.0,14492
1392.25,1.79396,846500.0,13604
1395.58,1.79019,843622.0,13676
1398.91,1.76622,841228.0,14411
1402.23,1.774309,838489.0,14099
1405.55,1.78183,836065.0,13817
1408.86,1.78291,834396.0,13755
1412.17,1.78838,832187.0,13547
1415.47,1.79389,830123.0,13343
1418.77,1.79578,828244.0,13255
1422.07,1.78308,827314.0,13633
1426.45,1.78762,826435.0,13477
1429.74,1.781285,825475.0,13659
1433.02,1.77768,824938.0,13764
1436.29,1.797211,823959.0,13143
1439.57,1.76844,823822.0,14041
1442.83,1.78362,823184.0,13548
1446.1,1.77749,821953.0,13720
1449.36,1.7517,821135.0,14545
1452.61,1.74743,819413.0,14658
1455.86,1.74617,817492.0,14666
1459.11,1.7303,814862.0,15163
1463.43,1.73728,811075.0,14852
1466.67,1.74258,807671.0,14610
1469.9,1.73466,803699.0,14806
1473.13,1.72815,799396.0,14949
1476.35,1.73448,795129.0,14654
1479.57,1.7277,790127.0,14791
1482.78,1.73479,784937.0,14456
1486,1.71962,779544.0,14867
1489.2,1.71146,773733.0,15036
1492.4,1.71547,767463.0,14777
1496.67,1.70605,758614.0,14927
1499.86,1.69958,751802.0,15015
1503.04,1.71784,744297.0,14253
1506.23,1.7186,735980.0,14069
1509.41,1.69759,728040.0,14607
1512.58,1.71264,719703.0,13948
1515.75,1.70193,710982.0,14123
1518.92,1.70788,702409.0,13763
1522.08,1.702606,693280.0,13750
1525.24,1.70333,683935.0,13542
1529.44,1.69922,671492.0,13422
1532.59,1.710382,661352.0,12884
1535.73,1.70831,650841.0,12740
1538.87,1.70775,640156.0,12547
1542,1.70761,629036.0,12333
1545.13,1.7071,617445.0,12120
1548.26,1.69913,605527.0,12106
1551.38,1.6967,594133.0,11945
1554.49,1.71186,582894.0,11317
1557.61,1.68042,571271.0,11924
1561.75,1.70104,555940.0,11066
1564.85,1.69474,544812.0,11003
1567.95,1.68927,533402.0,10909
1571.05,1.68277,521915.0,10835
1574.14,1.68285,510788.0,10602
1577.22,1.67922,499607.0,10457
1580.3,1.69498,487992.0,9850
1583.38,1.68353,476265.0,9870
1586.45,1.69194,464618.0,9444
1589.52,1.68787,452782.0,9290
1593.6,1.688459,436897.0,8952
1596.66,1.66929,425551.0,9113
1599.71,1.6922,414191.0,8414
1602.76,1.68753,402799.0,8271
1605.81,1.71479,391352.0,7547
1608.85,1.68116,380811.0,7935
1611.89,1.68361,370076.0,7668
1614.92,1.693212,359798.0,7292
1617.95,1.66988,349165.0,7467
1620.97,1.68692,338717.0,6965
1624.99,1.703511,325435.0,6441
1628.01,1.70593,315463.0,6209
1631.02,1.65858,305570.0,6707
1634.02,1.68038,295762.0,6174
1637.02,1.68158,286306.0,5960
1640.02,1.68385,276696.0,5730
1643.01,1.686471,267004.0,5496
1646,1.69266,257531.0,5226
1648.98,1.67654,247817.0,5219
1651.96,1.69606,238547.0,4803
1655.93,1.69473,225092.0,4546
1658.89,1.67518,214425.0,4530
1661.86,1.68542,202241.0,4173
1664.82,1.69323,188046.0,3811
1667.78,1.70835,171566.0,3358
1670.73,1.736787,154101.0,2825
1673.67,1.7209,134892.0,2565
1676.62,1.78892,115325.0,1875
1679.56,1.66425,97255.0,2107
1682.49,1.73568,81017.0,1489
1686.4,1.71194,63571.0,1234
1689.32,1.73238,53566.0,992
1692.24,1.69416,45493.0,920
1695.16,1.705857,39217.0,772
1698.07,1.85435,33537.0,469
1700.97,1.68892,29118.0,596