File: Data/LDPE/LDPE2_Column 1_20211230_112150.csv
***Scan Config Information***,,,,,,,***Reference Scan Information***,,,,,,,,
Scan Config Name:,Column 1,,,,,,Scan Config Name:,Built-in Factory Reference,,,,,,
Scan Config Type:,Slew,Num Section:,1,,,,Scan Config Type:,Slew,Num Section:,1,,,,,
Section Config Type:,Column,,,,,,Section Config Type:,Column,,,,,,,
Start Wavelength (nm):,900,,,,,,Start Wavelength (nm):,900.0,,,,,,
End Wavelength (nm):,1700,,,,,,End Wavelength (nm):,1700.0,,,,,,
Pattern Width (nm):,7.03,,,,,,Pattern Width (nm):,7.03,,,,,,,
Exposure (ms):,0.635,,,,,,Exposure (ms):,0.635,,,,,,,
Digital Resolution:,228,,,,,,Digital Resolution:,228,,,,,,,
Num Repeats:,6,,,,,,Num Repeats:,30,,,,,,,
PGA Gain:,64,,,,,,PGA Gain:,64,,,,,,
System Temp (C):,19.77,,,,,,System Temp (C):,24.17,,,,,,,
Humidity (%):,40.79,,,,,,Humidity (%):,30.0,,,,,,
Battery Capacity (%):,64,,,,,,Lamp Intensity:,2449,,,,,,,
Lamp Intensity:,2445,,,,,,Data Date-Time:,19/12/12T12:44:54,,,,,,
Data Date-Time:,18/1/1T7:1:8,,,,,,,,,,,,,,
Total Measurement Time in sec:,4.162,,,,,,,,,,,,,
***General Information***,,,,,,,***Calibration Coefficients***,,,,,,,,
Model Name:,NIR-S-G1,,,,,,Shift Vector Coefficients:,-8.44101,0.0554567,-8.45244e-05,,,,,
Serial Number:,947R055,95UB122GC0A947R055,,,,,Pixel to Wavelength Coefficients:,1795.87,-0.92014,-0.00023961,,,,,
APP Version:,2.16.7,,,,,,,,,,,,,
TIVA Version:,2.4.4,,,,,,***Lamp Usage * **,,,,,,,,
UUID:,de:67:c:88:67:2c:2d:21,,,,,,Total Time(HH:MM:SS):,12min 10sec ,,,,,,,
Main Board Version:,D,,,,,,***Device/Error Status***,,,,,,,,
Detector Board Version:,B,,,,,,Device Status:,0x00000031,,,,,,
,,,,,,,Error status:,0x00000000,Error Code:,0x00000000000000000000000000000000,,,,,
,,,,,,,,,Error Details:,Not Found,,,,,
***Scan Data***,,,,,,,,,,,,,,,
Wavelength (nm),Absorbance (AU),Reference Signal (unitless),Sample Signal (unitless)
901.841,1.57859,99968.0,2638
905.754,1.58885,108993.0,2809
909.663,1.60039,118185.0,2966
913.568,1.61241,129285.0,3156
917.469,1.55618,143347.0,3983
921.365,1.59828,160437.0,4046
925.257,1.58875,180387.0,4650
929.144,1.63704,201426.0,4646
933.028,1.61204,220694.0,5392
936.906,1.615771,237501.0,5753
942.072,1.60565,256956.0,6371
945.94,1.63112,270636.0,6328
949.805,1.5887,283621.0,7312
953.665,1.59894,296982.0,7478
957.521,1.59957,310733.0,7813
961.373,1.60204,324587.0,8115
965.22,1.59977,339205.0,8525
969.063,1.58894,353669.0,9113
972.902,1.63124,368253.0,8608
976.736,1.61997,382531.0,9177
981.842,1.61716,399901.0,9656
985.666,1.61645,411528.0,9953
989.486,1.61429,422199.0,10262
993.302,1.6172,431172.0,10410
997.113,1.610844,438051.0,10732
1000.92,1.612645,444216.0,10838
1004.72,1.62536,449307.0,10646
1008.52,1.616309,453601.0,10974
1012.32,1.61873,456801.0,10990
1016.11,1.62464,459312.0,10901
1021.15,1.63213,461643.0,10769
1024.93,1.62818,463069.0,10901
1028.71,1.63116,463868.0,10845
1032.48,1.64267,464326.0,10572
1036.24,1.63799,466001.0,10725
1040.01,1.64091,466870.0,10673
1043.77,1.64425,467033.0,10595
1047.52,1.63896,467045.0,10725
1051.27,1.64224,467467.0,10654
1055.01,1.65049,467627.0,10457
1060,1.6545,468351.0,10377
1063.74,1.64236,469050.0,10687
1067.47,1.65146,469880.0,10484
1071.19,1.65708,471228.0,10379
1074.92,1.63803,472558.0,10875
1078.63,1.64753,474087.0,10674
1082.35,1.65376,476569.0,10577
1086.06,1.66241,479445.0,10431
1089.76,1.66923,481756.0,10318
1093.46,1.65366,485147.0,10770
1098.39,1.660595,489755.0,10700
1102.08,1.65813,493535.0,10844
1105.77,1.65727,497426.0,10951
1109.45,1.65733,501308.0,11035
1113.13,1.66288,505725.0,10991
1116.8,1.67229,509421.0,10834
1120.47,1.663962,513217.0,11126
1124.13,1.67269,517470.0,10995
1127.79,1.68504,521690.0,10774
1131.45,1.687,526099.0,10816
1136.32,1.68177,531329.0,11056
1139.96,1.69173,535549.0,10891
1143.61,1.67828,539808.0,11323
1147.24,1.69666,543900.0,10936
1150.88,1.715867,547908.0,10540
1154.5,1.70744,552170.0,10830
1158.13,1.70841,556773.0,10896
1161.75,1.736328,561098.0,10297
1165.36,1.73734,565898.0,10361
1168.98,1.73808,571300.0,10442
1172.58,1.73438,576602.0,10629
1177.39,1.73617,584320.0,10727
1180.98,1.77644,589396.0,9862
1184.58,1.76978,596143.0,10129
1188.16,1.79356,602955.0,9699
1191.75,1.81019,609704.0,9439
1195.33,1.792657,617215.0,9949
1198.9,1.797471,624471.0,9955
1202.48,1.85111,632472.0,8911
1206.04,1.845825,640381.0,9133
1209.61,1.86557,648161.0,8833
1214.35,1.857032,659999.0,9173
1217.9,1.87413,668609.0,8934
1221.45,1.858044,677405.0,9393
1224.99,1.82181,686281.0,10344
1228.53,1.80595,695317.0,10870
1232.07,1.80673,704063.0,10987
1235.6,1.79002,713007.0,11563
1239.13,1.772451,721330.0,12181
1242.65,1.76411,730030.0,12567
1246.17,1.76703,737591.0,12612
1250.85,1.73462,746809.0,13759
1254.36,1.74992,753336.0,13399
1257.86,1.73912,759907.0,13856
1261.36,1.75714,766538.0,13409
1264.86,1.74325,774802.0,13994
1268.35,1.751,784025.0,13910
1271.83,1.7355,794336.0,14605
1275.32,1.733929,804198.0,14840
1278.79,1.73369,813836.0,15026
1282.27,1.7287,823595.0,15382
1286.89,1.73401,834533.0,15397
1290.36,1.73548,842581.0,15493
1293.81,1.743973,849301.0,15314
1297.27,1.74754,856026.0,15309
1300.72,1.7421,862498.0,15619
1304.17,1.73238,868068.0,16076
1307.61,1.742182,872869.0,15804
1311.05,1.73069,877616.0,16316
1314.48,1.73498,881872.0,16234
1317.91,1.74037,885520.0,16100
1322.47,1.73561,888917.0,16340
1325.89,1.73664,891687.0,16352
1329.31,1.73628,894001.0,16408
1332.72,1.73719,895438.0,16400
1336.12,1.73487,896641.0,16510
1339.52,1.739507,897974.0,16359
1342.92,1.73386,898777.0,16588
1346.31,1.73921,898783.0,16385
1349.7,1.745058,898350.0,16158
1353.09,1.751482,896784.0,15893
1357.59,1.74912,895293.0,15953
1360.97,1.755054,892755.0,15692
1364.34,1.763916,890430.0,15335
1367.7,1.75376,888504.0,15664
1371.06,1.75952,885825.0,15411
1374.42,1.77759,881046.0,14703
1377.77,1.78328,874030.0,14396
1381.12,1.79189,865751.0,13980
1384.47,1.79994,857799.0,13597
1387.81,1.83033,851759.0,12589
1392.25,1.84266,846500.0,12161
1395.58,1.8443,843622.0,12074
1398.91,1.83713,841228.0,12240
1402.23,1.80962,838489.0,12998
1405.55,1.82787,836065.0,12427
1408.86,1.8276,834396.0,12410
1412.17,1.83898,832187.0,12057
1415.47,1.82569,830123.0,12401
1418.77,1.83606,828244.0,12081
1422.07,1.84808,827314.0,11738
1426.45,1.8359,826435.0,12059
1429.74,1.8424,825475.0,11866
1433.02,1.83378,824938.0,12096
1436.29,1.84635,823959.0,11737
1439.57,1.83011,823822.0,12182
1442.83,1.81998,823184.0,12460
1446.1,1.82834,821953.0,12204
1449.36,1.80887,821135.0,12751
1452.61,1.81282,819413.0,12609
1455.86,1.82219,817492.0,12311
1459.11,1.799452,814862.0,12931
1463.43,1.81021,811075.0,12556
1466.67,1.79867,807671.0,12840
1469.9,1.79302,803699.0,12944
1473.13,1.790157,799396.0,12960
1476.35,1.77786,795129.0,13261
1479.57,1.78751,790127.0,12888
1482.78,1.7936,784937.0,12625
1486,1.78294,779544.0,12850
1489.2,1.78192,773733.0,12784
1492.4,1.77893,767463.0,12768
1496.67,1.77281,758614.0,12800
1499.86,1.771753,751802.0,12716
1503.04,1.77442,744297.0,12512
1506.23,1.77898,735980.0,12243
1509.41,1.76203,728040.0,12593
1512.58,1.78164,719703.0,11899
1515.75,1.76768,710982.0,12139
1518.92,1.76879,702409.0,11962
1522.08,1.76789,693280.0,11831
1525.24,1.76598,683935.0,11723
1529.44,1.77151,671492.0,11364
1532.59,1.77075,661352.0,11212
1535.73,1.75665,650841.0,11398
1538.87,1.78004,640156.0,10623
1542,1.77873,629036.0,10470
1545.13,1.77688,617445.0,10321
1548.26,1.77635,605527.0,10134
1551.38,1.764943,594133.0,10208
1554.49,1.75874,582894.0,10159
1557.61,1.75632,571271.0,10012
1561.75,1.7648,555940.0,9555
1564.85,1.749654,544812.0,9696
1567.95,1.74438,533402.0,9609
1571.05,1.760184,521915.0,9066
1574.14,1.75914,510788.0,8894
1577.22,1.75026,499607.0,8879
1580.3,1.75741,487992.0,8531
1583.38,1.76008,476265.0,8275
1586.45,1.76249,464618.0,8028
1589.52,1.753125,452782.0,7994
1593.6,1.74806,436897.0,7804
1596.66,1.74506,425551.0,7654
1599.71,1.75269,414191.0,7320
1602.76,1.749206,402799.0,7176
1605.81,1.74033,391352.0,7116
1608.85,1.76018,380811.0,6615
1611.89,1.72618,370076.0,6952
1614.92,1.746028,359798.0,6457
1617.95,1.73523,349165.0,6424
1620.97,1.74722,338717.0,6062
1624.99,1.72465,325435.0,6135
1628.01,1.71942,315463.0,6019
1631.02,1.749991,305570.0,5434
1634.02,1.74,295762.0,5382
1637.02,1.728964,286306.0,5344
1640.02,1.74312,276696.0,4999
1643.01,1.74809,267004.0,4769
1646,1.74058,257531.0,4680
1648.98,1.72724,247817.0,4644
1651.96,1.741387,238547.0,4327
1655.93,1.71839,225092.0,4305
1658.89,1.7411,214425.0,3892
1661.86,1.77593,202241.0,3388
1664.82,1.79859,188046.0,2990
1667.78,1.73681,171566.0,3145
1670.73,1.78589,154101.0,2523
1673.67,1.74313,134892.0,2437
1676.62,1.78089,115325.0,1910
1679.56,1.70258,97255.0,1929
1682.49,1.706906,81017.0,1591
1686.4,1.970112,63571.0,681
1689.32,1.57447,53566.0,1427
1692.24,1.79581,45493.0,728
1695.16,1.78729,39217.0,640
1698.07,1.65865,33537.0,736
1700.97,1.79764,29118.0,464