File: Data/LDPE/LDPE1_Column 1_20211230_112130.csv
***Scan Config Information***,,,,,,,***Reference Scan Information***,,,,,,,,
Scan Config Name:,Column 1,,,,,,Scan Config Name:,Built-in Factory Reference,,,,,,
Scan Config Type:,Slew,Num Section:,1,,,,Scan Config Type:,Slew,Num Section:,1,,,,,
Section Config Type:,Column,,,,,,Section Config Type:,Column,,,,,,,
Start Wavelength (nm):,900,,,,,,Start Wavelength (nm):,900.0,,,,,,
End Wavelength (nm):,1700,,,,,,End Wavelength (nm):,1700.0,,,,,,
Pattern Width (nm):,7.03,,,,,,Pattern Width (nm):,7.03,,,,,,,
Exposure (ms):,0.635,,,,,,Exposure (ms):,0.635,,,,,,,
Digital Resolution:,228,,,,,,Digital Resolution:,228,,,,,,,
Num Repeats:,6,,,,,,Num Repeats:,30,,,,,,,
PGA Gain:,64,,,,,,PGA Gain:,64,,,,,,
System Temp (C):,19.26,,,,,,System Temp (C):,24.17,,,,,,,
Humidity (%):,41.0,,,,,,Humidity (%):,30.0,,,,,,
Battery Capacity (%):,65,,,,,,Lamp Intensity:,2449,,,,,,,
Lamp Intensity:,2441,,,,,,Data Date-Time:,19/12/12T12:44:54,,,,,,
Data Date-Time:,18/1/1T7:0:49,,,,,,,,,,,,,,
Total Measurement Time in sec:,4.398,,,,,,,,,,,,,
***General Information***,,,,,,,***Calibration Coefficients***,,,,,,,,
Model Name:,NIR-S-G1,,,,,,Shift Vector Coefficients:,-8.44101,0.0554567,-8.45244e-05,,,,,
Serial Number:,947R055,95UB122GC0A947R055,,,,,Pixel to Wavelength Coefficients:,1795.87,-0.92014,-0.00023961,,,,,
APP Version:,2.16.7,,,,,,,,,,,,,
TIVA Version:,2.4.4,,,,,,***Lamp Usage * **,,,,,,,,
UUID:,de:67:c:88:67:2c:2d:21,,,,,,Total Time(HH:MM:SS):,12min 8sec ,,,,,,,
Main Board Version:,D,,,,,,***Device/Error Status***,,,,,,,,
Detector Board Version:,B,,,,,,Device Status:,0x00000031,,,,,,
,,,,,,,Error status:,0x00000000,Error Code:,0x00000000000000000000000000000000,,,,,
,,,,,,,,,Error Details:,Not Found,,,,,
***Scan Data***,,,,,,,,,,,,,,,
Wavelength (nm),Absorbance (AU),Reference Signal (unitless),Sample Signal (unitless)
901.841,1.327486,99968.0,4703
905.754,1.35643,108993.0,4797
909.663,1.338483,118185.0,5421
913.568,1.34158,129285.0,5888
917.469,1.3513,143347.0,6384
921.365,1.33831,160437.0,7362
925.257,1.32531,180387.0,8529
929.144,1.3635,201426.0,8722
933.028,1.36804,220694.0,9457
936.906,1.35291,237501.0,10538
942.072,1.35387,256956.0,11376
945.94,1.33492,270636.0,12516
949.805,1.3551,283621.0,12521
953.665,1.3389,296982.0,13609
957.521,1.34825,310733.0,13936
961.373,1.34862,324587.0,14545
965.22,1.347962,339205.0,15223
969.063,1.3525,353669.0,15707
972.902,1.34314,368253.0,16711
976.736,1.35388,382531.0,16935
981.842,1.361528,399901.0,17395
985.666,1.35507,411528.0,18169
989.486,1.359615,422199.0,18446
993.302,1.35982,431172.0,18829
997.113,1.35538,438051.0,19326
1000.92,1.36278,444216.0,19267
1004.72,1.36571,449307.0,19357
1008.52,1.37004,453601.0,19348
1012.32,1.361551,456801.0,19869
1016.11,1.37218,459312.0,19495
1021.15,1.37305,461643.0,19555
1024.93,1.36804,463069.0,19843
1028.71,1.37195,463868.0,19699
1032.48,1.38178,464326.0,19277
1036.24,1.38822,466001.0,19062
1040.01,1.39072,466870.0,18988
1043.77,1.39078,467033.0,18992
1047.52,1.39622,467045.0,18756
1051.27,1.39541,467467.0,18808
1055.01,1.38549,467627.0,19249
1060,1.40974,468351.0,18232
1063.74,1.39103,469050.0,19063
1067.47,1.39378,469880.0,18976
1071.19,1.38941,471228.0,19223
1074.92,1.40806,472558.0,18467
1078.63,1.40934,474087.0,18472
1082.35,1.40434,476569.0,18784
1086.06,1.41034,479445.0,18638
1089.76,1.410823,481756.0,18707
1093.46,1.40671,485147.0,19018
1098.39,1.414,489755.0,18879
1102.08,1.412785,493535.0,19078
1105.77,1.410609,497426.0,19325
1109.45,1.42003,501308.0,19058
1113.13,1.42347,505725.0,19074
1116.8,1.423346,509421.0,19219
1120.47,1.41603,513217.0,19691
1124.13,1.43575,517470.0,18973
1127.79,1.430597,521690.0,19356
1131.45,1.42711,526099.0,19677
1136.32,1.42938,531329.0,19769
1139.96,1.42986,535549.0,19904
1143.61,1.44265,539808.0,19480
1147.24,1.44687,543900.0,19438
1150.88,1.4436,547908.0,19729
1154.5,1.46229,552170.0,19045
1158.13,1.459761,556773.0,19316
1161.75,1.47769,561098.0,18679
1165.36,1.48735,565898.0,18424
1168.98,1.49009,571300.0,18483
1172.58,1.49866,576602.0,18290
1177.39,1.51293,584320.0,17936
1180.98,1.52913,589396.0,17429
1184.58,1.52097,596143.0,17963
1188.16,1.54309,602955.0,17266
1191.75,1.55716,609704.0,16903
1195.33,1.55973,617215.0,17010
1198.9,1.58928,624471.0,16078
1202.48,1.60227,632472.0,15804
1206.04,1.61937,640381.0,15384
1209.61,1.65429,648161.0,14368
1214.35,1.659285,659999.0,14463
1217.9,1.6419,668609.0,15250
1221.45,1.62418,677405.0,16094
1224.99,1.60654,686281.0,16981
1228.53,1.58135,695317.0,18232
1232.07,1.56422,704063.0,19204
1235.6,1.54436,713007.0,20358
1239.13,1.53901,721330.0,20851
1242.65,1.52877,730030.0,21606
1246.17,1.51005,737591.0,22791
1250.85,1.508,746809.0,23185
1254.36,1.5022,753336.0,23702
1257.86,1.51041,759907.0,23461
1261.36,1.49127,766538.0,24732
1264.86,1.497744,774802.0,24629
1268.35,1.49345,784025.0,25170
1271.83,1.49143,794336.0,25620
1275.32,1.49513,804198.0,25718
1278.79,1.48043,813836.0,26922
1282.27,1.49247,823595.0,26500
1286.89,1.49255,834533.0,26847
1290.36,1.49192,842581.0,27145
1293.81,1.4891,849301.0,27540
1297.27,1.48786,856026.0,27837
1300.72,1.48862,862498.0,27999
1304.17,1.48812,868068.0,28212
1307.61,1.48426,872869.0,28621
1311.05,1.49232,877616.0,28248
1314.48,1.49023,881872.0,28522
1317.91,1.49405,885520.0,28389
1322.47,1.48468,888917.0,29119
1325.89,1.48262,891687.0,29349
1329.31,1.49499,894001.0,28599
1332.72,1.49028,895438.0,28957
1336.12,1.49261,896641.0,28841
1339.52,1.49085,897974.0,29001
1342.92,1.49444,898777.0,28788
1346.31,1.49175,898783.0,28967
1349.7,1.50074,898350.0,28360
1353.09,1.49702,896784.0,28554
1357.59,1.49208,895293.0,28833
1360.97,1.50018,892755.0,28220
1364.34,1.50894,890430.0,27584
1367.7,1.51344,888504.0,27241
1371.06,1.51892,885825.0,26818
1374.42,1.52154,881046.0,26513
1377.77,1.53346,874030.0,25590
1381.12,1.54029,865751.0,24952
1384.47,1.56545,857799.0,23331
1387.81,1.57335,851759.0,22749
1392.25,1.59693,846500.0,21414
1395.58,1.600017,843622.0,21190
1398.91,1.59835,841228.0,21211
1402.23,1.59047,838489.0,21529
1405.55,1.58901,836065.0,21539
1408.86,1.58599,834396.0,21646
1412.17,1.59337,832187.0,21225
1415.47,1.60913,830123.0,20418
1418.77,1.60564,828244.0,20536
1422.07,1.607721,827314.0,20415
1426.45,1.60486,826435.0,20528
1429.74,1.59542,825475.0,20955
1433.02,1.59921,824938.0,20759
1436.29,1.59584,823959.0,20896
1439.57,1.60047,823822.0,20671
1442.83,1.58647,823184.0,21332
1446.1,1.59026,821953.0,21115
1449.36,1.58155,821135.0,21521
1452.61,1.56508,819413.0,22306
1455.86,1.57879,817492.0,21562
1459.11,1.55898,814862.0,22496
1463.43,1.5592,811075.0,22380
1466.67,1.55127,807671.0,22697
1469.9,1.54598,803699.0,22862
1473.13,1.55012,799396.0,22524
1476.35,1.54275,795129.0,22787
1479.57,1.53967,790127.0,22805
1482.78,1.530509,784937.0,23138
1486,1.53627,779544.0,22676
1489.2,1.52993,773733.0,22838
1492.4,1.53483,767463.0,22399
1496.67,1.53226,758614.0,22272
1499.86,1.5265,751802.0,22367
1503.04,1.52412,744297.0,22265
1506.23,1.52654,735980.0,21894
1509.41,1.5258,728040.0,21695
1512.58,1.522579,719703.0,21606
1515.75,1.53051,710982.0,20958
1518.92,1.523854,702409.0,21025
1522.08,1.52064,693280.0,20906
1525.24,1.536664,683935.0,19877
1529.44,1.52906,671492.0,19860
1532.59,1.52641,661352.0,19680
1535.73,1.53358,650841.0,19050
1538.87,1.53148,640156.0,18828
1542,1.52823,629036.0,18640
1545.13,1.535157,617445.0,18007
1548.26,1.53561,605527.0,17641
1551.38,1.51876,594133.0,17994
1554.49,1.51838,582894.0,17669
1557.61,1.5119,571271.0,17577
1561.75,1.51686,555940.0,16911
1564.85,1.5209,544812.0,16419
1567.95,1.52356,533402.0,15977
1571.05,1.52724,521915.0,15501
1574.14,1.50551,510788.0,15949
1577.22,1.51819,499607.0,15151
1580.3,1.51572,487992.0,14883
1583.38,1.50234,476265.0,14980
1586.45,1.51775,464618.0,14104
1589.52,1.51904,452782.0,13704
1593.6,1.5242,436897.0,13067
1596.66,1.51712,425551.0,12937
1599.71,1.5188,414191.0,12543
1602.76,1.5199,402799.0,12167
1605.81,1.50831,391352.0,12141
1608.85,1.51193,380811.0,11716
1611.89,1.51733,370076.0,11245
1614.92,1.51625,359798.0,10960
1617.95,1.51846,349165.0,10582
1620.97,1.53088,338717.0,9976
1624.99,1.53671,325435.0,9457
1628.01,1.51695,315463.0,9594
1631.02,1.534892,305570.0,8917
1634.02,1.52918,295762.0,8745
1637.02,1.52563,286306.0,8535
1640.02,1.51876,276696.0,8380
1643.01,1.52294,267004.0,8009
1646,1.53519,257531.0,7510
1648.98,1.52998,247817.0,7314
1651.96,1.52883,238547.0,7059
1655.93,1.52557,225092.0,6711
1658.89,1.53707,214425.0,6226
1661.86,1.55846,202241.0,5590
1664.82,1.58629,188046.0,4875
1667.78,1.57843,171566.0,4529
1670.73,1.56715,154101.0,4175
1673.67,1.59864,134892.0,3399
1676.62,1.65983,115325.0,2524
1679.56,1.64431,97255.0,2206
1682.49,1.61082,81017.0,1985
1686.4,1.62313,63571.0,1514
1689.32,1.735453,53566.0,985
1692.24,1.65191,45493.0,1014
1695.16,1.96102,39217.0,429
1698.07,1.75467,33537.0,590
1700.97,1.8368,29118.0,424