File: Data/LDPE/LDPE19_Column 1_20211230_112604.csv
***Scan Config Information***,,,,,,,***Reference Scan Information***,,,,,,,,
Scan Config Name:,Column 1,,,,,,Scan Config Name:,Built-in Factory Reference,,,,,,
Scan Config Type:,Slew,Num Section:,1,,,,Scan Config Type:,Slew,Num Section:,1,,,,,
Section Config Type:,Column,,,,,,Section Config Type:,Column,,,,,,,
Start Wavelength (nm):,900,,,,,,Start Wavelength (nm):,900.0,,,,,,
End Wavelength (nm):,1700,,,,,,End Wavelength (nm):,1700.0,,,,,,
Pattern Width (nm):,7.03,,,,,,Pattern Width (nm):,7.03,,,,,,,
Exposure (ms):,0.635,,,,,,Exposure (ms):,0.635,,,,,,,
Digital Resolution:,228,,,,,,Digital Resolution:,228,,,,,,,
Num Repeats:,6,,,,,,Num Repeats:,30,,,,,,,
PGA Gain:,64,,,,,,PGA Gain:,64,,,,,,
System Temp (C):,24.1,,,,,,System Temp (C):,24.17,,,,,,,
Humidity (%):,40.6,,,,,,Humidity (%):,30.0,,,,,,
Battery Capacity (%):,59,,,,,,Lamp Intensity:,2449,,,,,,,
Lamp Intensity:,2508,,,,,,Data Date-Time:,19/12/12T12:44:54,,,,,,
Data Date-Time:,18/1/1T7:5:23,,,,,,,,,,,,,,
Total Measurement Time in sec:,4.35,,,,,,,,,,,,,
***General Information***,,,,,,,***Calibration Coefficients***,,,,,,,,
Model Name:,NIR-S-G1,,,,,,Shift Vector Coefficients:,-8.44101,0.0554567,-8.45244e-05,,,,,
Serial Number:,947R055,95UB122GC0A947R055,,,,,Pixel to Wavelength Coefficients:,1795.87,-0.92014,-0.00023961,,,,,
APP Version:,2.16.7,,,,,,,,,,,,,
TIVA Version:,2.4.4,,,,,,***Lamp Usage * **,,,,,,,,
UUID:,de:67:c:88:67:2c:2d:21,,,,,,Total Time(HH:MM:SS):,12min 48sec ,,,,,,,
Main Board Version:,D,,,,,,***Device/Error Status***,,,,,,,,
Detector Board Version:,B,,,,,,Device Status:,0x00000031,,,,,,
,,,,,,,Error status:,0x00000000,Error Code:,0x00000000000000000000000000000000,,,,,
,,,,,,,,,Error Details:,Not Found,,,,,
***Scan Data***,,,,,,,,,,,,,,,
Wavelength (nm),Absorbance (AU),Reference Signal (unitless),Sample Signal (unitless)
901.841,1.740506,99968.0,1817
905.754,1.79263,108993.0,1757
909.663,1.77634,118185.0,1978
913.568,1.70535,129285.0,2548
917.469,1.793341,143347.0,2307
921.365,1.77555,160437.0,2690
925.257,1.79321,180387.0,2904
929.144,1.77034,201426.0,3418
933.028,1.77794,220694.0,3680
936.906,1.7334,237501.0,4388
942.072,1.77117,256956.0,4352
945.94,1.74736,270636.0,4842
949.805,1.76441,283621.0,4879
953.665,1.75664,296982.0,5201
957.521,1.73031,310733.0,5782
961.373,1.73938,324587.0,5915
965.22,1.71158,339205.0,6590
969.063,1.76099,353669.0,6132
972.902,1.74457,368253.0,6631
976.736,1.74952,382531.0,6810
981.842,1.74132,399901.0,7255
985.666,1.75078,411528.0,7305
989.486,1.74872,422199.0,7530
993.302,1.78095,431172.0,7140
997.113,1.73476,438051.0,8068
1000.92,1.76178,444216.0,7688
1004.72,1.76684,449307.0,7686
1008.52,1.7628,453601.0,7832
1012.32,1.7697,456801.0,7763
1016.11,1.75523,459312.0,8070
1021.15,1.77934,461643.0,7673
1024.93,1.77455,463069.0,7782
1028.71,1.77158,463868.0,7849
1032.48,1.77663,464326.0,7766
1036.24,1.78043,466001.0,7726
1040.01,1.77223,466870.0,7888
1043.77,1.77321,467033.0,7873
1047.52,1.79291,467045.0,7524
1051.27,1.78152,467467.0,7731
1055.01,1.788629,467627.0,7608
1060,1.79239,468351.0,7554
1063.74,1.80164,469050.0,7406
1067.47,1.79146,469880.0,7595
1071.19,1.80359,471228.0,7407
1074.92,1.79393,472558.0,7595
1078.63,1.79169,474087.0,7659
1082.35,1.79897,476569.0,7571
1086.06,1.83273,479445.0,7047
1089.76,1.81213,481756.0,7425
1093.46,1.80455,485147.0,7609
1098.39,1.78461,489755.0,8042
1102.08,1.7979,493535.0,7860
1105.77,1.80536,497426.0,7787
1109.45,1.80072,501308.0,7932
1113.13,1.81232,505725.0,7791
1116.8,1.83679,509421.0,7418
1120.47,1.81532,513217.0,7852
1124.13,1.8283,517470.0,7684
1127.79,1.836199,521690.0,7607
1131.45,1.82581,526099.0,7857
1136.32,1.80576,531329.0,8310
1139.96,1.82085,535549.0,8090
1143.61,1.8214,539808.0,8144
1147.24,1.85556,543900.0,7585
1150.88,1.84103,547908.0,7901
1154.5,1.84748,552170.0,7845
1158.13,1.8791,556773.0,7355
1161.75,1.86971,561098.0,7574
1165.36,1.89837,565898.0,7151
1168.98,1.89028,571300.0,7355
1172.58,1.8969,576602.0,7311
1177.39,1.89176,584320.0,7497
1180.98,1.90625,589396.0,7314
1184.58,1.89402,596143.0,7609
1188.16,1.90222,602955.0,7552
1191.75,1.930813,609704.0,7150
1195.33,1.92795,617215.0,7286
1198.9,1.94169,624471.0,7142
1202.48,1.97881,632472.0,6641
1206.04,1.963081,640381.0,6972
1209.61,2.00577,648161.0,6396
1214.35,2.0165,659999.0,6354
1217.9,2.00229,668609.0,6651
1221.45,1.99326,677405.0,6880
1224.99,1.97211,686281.0,7318
1228.53,1.94626,695317.0,7869
1232.07,1.95258,704063.0,7853
1235.6,1.92037,713007.0,8565
1239.13,1.89866,721330.0,9109
1242.65,1.90311,730030.0,9125
1246.17,1.89929,737591.0,9301
1250.85,1.88954,746809.0,9631
1254.36,1.86771,753336.0,10216
1257.86,1.88807,759907.0,9833
1261.36,1.87039,766538.0,10331
1264.86,1.853121,774802.0,10866
1268.35,1.86292,784025.0,10750
1271.83,1.87482,794336.0,10597
1275.32,1.85653,804198.0,11190
1278.79,1.85219,813836.0,11438
1282.27,1.84623,823595.0,11735
1286.89,1.85207,834533.0,11732
1290.36,1.84948,842581.0,11916
1293.81,1.842026,849301.0,12219
1297.27,1.85658,856026.0,11910
1300.72,1.85904,862498.0,11932
1304.17,1.85162,868068.0,12216
1307.61,1.85677,872869.0,12139
1311.05,1.84359,877616.0,12581
1314.48,1.84318,881872.0,12654
1317.91,1.86845,885520.0,11988
1322.47,1.8424,888917.0,12778
1325.89,1.85732,891687.0,12385
1329.31,1.85547,894001.0,12470
1332.72,1.85624,895438.0,12468
1336.12,1.85425,896641.0,12542
1339.52,1.864313,897974.0,12273
1342.92,1.85685,898777.0,12497
1346.31,1.84862,898783.0,12736
1349.7,1.86559,898350.0,12242
1353.09,1.85177,896784.0,12616
1357.59,1.86016,895293.0,12354
1360.97,1.849054,892755.0,12638
1364.34,1.85213,890430.0,12516
1367.7,1.86412,888504.0,12149
1371.06,1.87315,885825.0,11863
1374.42,1.86916,881046.0,11908
1377.77,1.88185,874030.0,11473
1381.12,1.8918,865751.0,11107
1384.47,1.90882,857799.0,10582
1387.81,1.90855,851759.0,10514
1392.25,1.94086,846500.0,9700
1395.58,1.9405,843622.0,9675
1398.91,1.93653,841228.0,9736
1402.23,1.93744,838489.0,9684
1405.55,1.914663,836065.0,10176
1408.86,1.92741,834396.0,9862
1412.17,1.93064,832187.0,9763
1415.47,1.95763,830123.0,9152
1418.77,1.94342,828244.0,9435
1422.07,1.9477,827314.0,9332
1426.45,1.94905,826435.0,9293
1429.74,1.94242,825475.0,9425
1433.02,1.92898,824938.0,9715
1436.29,1.936995,823959.0,9526
1439.57,1.943029,823822.0,9393
1442.83,1.92792,823184.0,9718
1446.1,1.911128,821953.0,10086
1449.36,1.90697,821135.0,10173
1452.61,1.91177,819413.0,10040
1455.86,1.90176,817492.0,10250
1459.11,1.911736,814862.0,9985
1463.43,1.89648,811075.0,10294
1466.67,1.887952,807671.0,10454
1469.9,1.90828,803699.0,9927
1473.13,1.87411,799396.0,10682
1476.35,1.88307,795129.0,10408
1479.57,1.88213,790127.0,10365
1482.78,1.88052,784937.0,10335
1486,1.88243,779544.0,10219
1489.2,1.8835,773733.0,10118
1492.4,1.87344,767463.0,10271
1496.67,1.8668,758614.0,10309
1499.86,1.87015,751802.0,10138
1503.04,1.86949,744297.0,10052
1506.23,1.86565,735980.0,10028
1509.41,1.87133,728040.0,9791
1512.58,1.86447,719703.0,9833
1515.75,1.87716,710982.0,9434
1518.92,1.869965,702409.0,9476
1522.08,1.87505,693280.0,9244
1525.24,1.857337,683935.0,9499
1529.44,1.85977,671492.0,9274
1532.59,1.84879,661352.0,9368
1535.73,1.86732,650841.0,8834
1538.87,1.86692,640156.0,8697
1542,1.85163,629036.0,8852
1545.13,1.84834,617445.0,8755
1548.26,1.84941,605527.0,8565
1551.38,1.85965,594133.0,8208
1554.49,1.85721,582894.0,8098
1557.61,1.847982,571271.0,8107
1561.75,1.847181,555940.0,7904
1564.85,1.851338,544812.0,7672
1567.95,1.815258,533402.0,8162
1571.05,1.842944,521915.0,7493
1574.14,1.83544,510788.0,7461
1577.22,1.84481,499607.0,7142
1580.3,1.84103,487992.0,7037
1583.38,1.84083,476265.0,6871
1586.45,1.85774,464618.0,6447
1589.52,1.820262,452782.0,6849
1593.6,1.8398,436897.0,6318
1596.66,1.82434,425551.0,6377
1599.71,1.85385,414191.0,5799
1602.76,1.82513,402799.0,6025
1605.81,1.82854,391352.0,5808
1608.85,1.8436,380811.0,5459
1611.89,1.83807,370076.0,5373
1614.92,1.851994,359798.0,5059
1617.95,1.8458,349165.0,4980
1620.97,1.83576,338717.0,4944
1624.99,1.825203,325435.0,4867
1628.01,1.84371,315463.0,4521
1631.02,1.79839,305570.0,4861
1634.02,1.81648,295762.0,4513
1637.02,1.84046,286306.0,4134
1640.02,1.8306,276696.0,4087
1643.01,1.82035,267004.0,4038
1646,1.81193,257531.0,3971
1648.98,1.85656,247817.0,3448
1651.96,1.82296,238547.0,3586
1655.93,1.785216,225092.0,3691
1658.89,1.78387,214425.0,3527
1661.86,1.82802,202241.0,3005
1664.82,1.85762,188046.0,2610
1667.78,1.82197,171566.0,2585
1670.73,1.89136,154101.0,1979
1673.67,1.80181,134892.0,2129
1676.62,1.87243,115325.0,1547
1679.56,1.7665,97255.0,1665
1682.49,1.84901,81017.0,1147
1686.4,1.88523,63571.0,828
1689.32,2.013722,53566.0,519
1692.24,2.19256,45493.0,292
1695.16,1.83989,39217.0,567
1698.07,1.63847,33537.0,771
1700.97,1.9728,29118.0,310