File: Data/LDPE/LDPE10_Column 1_20211230_112350.csv
***Scan Config Information***,,,,,,,***Reference Scan Information***,,,,,,,,
Scan Config Name:,Column 1,,,,,,Scan Config Name:,Built-in Factory Reference,,,,,,
Scan Config Type:,Slew,Num Section:,1,,,,Scan Config Type:,Slew,Num Section:,1,,,,,
Section Config Type:,Column,,,,,,Section Config Type:,Column,,,,,,,
Start Wavelength (nm):,900,,,,,,Start Wavelength (nm):,900.0,,,,,,
End Wavelength (nm):,1700,,,,,,End Wavelength (nm):,1700.0,,,,,,
Pattern Width (nm):,7.03,,,,,,Pattern Width (nm):,7.03,,,,,,,
Exposure (ms):,0.635,,,,,,Exposure (ms):,0.635,,,,,,,
Digital Resolution:,228,,,,,,Digital Resolution:,228,,,,,,,
Num Repeats:,6,,,,,,Num Repeats:,30,,,,,,,
PGA Gain:,64,,,,,,PGA Gain:,64,,,,,,
System Temp (C):,22.13,,,,,,System Temp (C):,24.17,,,,,,,
Humidity (%):,40.8,,,,,,Humidity (%):,30.0,,,,,,
Battery Capacity (%):,61,,,,,,Lamp Intensity:,2449,,,,,,,
Lamp Intensity:,2480,,,,,,Data Date-Time:,19/12/12T12:44:54,,,,,,
Data Date-Time:,18/1/1T7:3:9,,,,,,,,,,,,,,
Total Measurement Time in sec:,4.077,,,,,,,,,,,,,
***General Information***,,,,,,,***Calibration Coefficients***,,,,,,,,
Model Name:,NIR-S-G1,,,,,,Shift Vector Coefficients:,-8.44101,0.0554567,-8.45244e-05,,,,,
Serial Number:,947R055,95UB122GC0A947R055,,,,,Pixel to Wavelength Coefficients:,1795.87,-0.92014,-0.00023961,,,,,
APP Version:,2.16.7,,,,,,,,,,,,,
TIVA Version:,2.4.4,,,,,,***Lamp Usage * **,,,,,,,,
UUID:,de:67:c:88:67:2c:2d:21,,,,,,Total Time(HH:MM:SS):,12min 28sec ,,,,,,,
Main Board Version:,D,,,,,,***Device/Error Status***,,,,,,,,
Detector Board Version:,B,,,,,,Device Status:,0x00000031,,,,,,
,,,,,,,Error status:,0x00000000,Error Code:,0x00000000000000000000000000000000,,,,,
,,,,,,,,,Error Details:,Not Found,,,,,
***Scan Data***,,,,,,,,,,,,,,,
Wavelength (nm),Absorbance (AU),Reference Signal (unitless),Sample Signal (unitless)
901.841,1.17256,99968.0,6719
905.754,1.17093,108993.0,7353
909.663,1.19421,118185.0,7557
913.568,1.17634,129285.0,8614
917.469,1.21647,143347.0,8708
921.365,1.20163,160437.0,10085
925.257,1.215089,180387.0,10993
929.144,1.21687,201426.0,12225
933.028,1.21669,220694.0,13400
936.906,1.22118,237501.0,14272
942.072,1.22463,256956.0,15319
945.94,1.20723,270636.0,16794
949.805,1.204618,283621.0,17706
953.665,1.20059,296982.0,18713
957.521,1.20077,310733.0,19571
961.373,1.205228,324587.0,20235
965.22,1.20192,339205.0,21308
969.063,1.21052,353669.0,21781
972.902,1.2077,368253.0,22827
976.736,1.219,382531.0,23103
981.842,1.21254,399901.0,24514
985.666,1.21583,411528.0,25036
989.486,1.22673,422199.0,25049
993.302,1.23235,431172.0,25252
997.113,1.228007,438051.0,25913
1000.92,1.23239,444216.0,26014
1004.72,1.22894,449307.0,26522
1008.52,1.23459,453601.0,26429
1012.32,1.2441,456801.0,26039
1016.11,1.24266,459312.0,26269
1021.15,1.249968,461643.0,25962
1024.93,1.25285,463069.0,25870
1028.71,1.25271,463868.0,25923
1032.48,1.25689,464326.0,25700
1036.24,1.25206,466001.0,26081
1040.01,1.26506,466870.0,25359
1043.77,1.26097,467033.0,25608
1047.52,1.26808,467045.0,25193
1051.27,1.26783,467467.0,25230
1055.01,1.27191,467627.0,25003
1060,1.26958,468351.0,25176
1063.74,1.27168,469050.0,25092
1067.47,1.26897,469880.0,25294
1071.19,1.27902,471228.0,24786
1074.92,1.28086,472558.0,24751
1078.63,1.271127,474087.0,25394
1082.35,1.28045,476569.0,24985
1086.06,1.28655,479445.0,24785
1089.76,1.28971,481756.0,24724
1093.46,1.287534,485147.0,25023
1098.39,1.28877,489755.0,25189
1102.08,1.28628,493535.0,25529
1105.77,1.29034,497426.0,25491
1109.45,1.296041,501308.0,25355
1113.13,1.30124,505725.0,25274
1116.8,1.30248,509421.0,25386
1120.47,1.3062,513217.0,25357
1124.13,1.29906,517470.0,25991
1127.79,1.30336,521690.0,25945
1131.45,1.30454,526099.0,26093
1136.32,1.31104,531329.0,25961
1139.96,1.31444,535549.0,25963
1143.61,1.3183,539808.0,25938
1147.24,1.32323,543900.0,25840
1150.88,1.34058,547908.0,25011
1154.5,1.33654,552170.0,25441
1158.13,1.34342,556773.0,25250
1161.75,1.35287,561098.0,24898
1165.36,1.367561,565898.0,24276
1168.98,1.38254,571300.0,23677
1172.58,1.38346,576602.0,23846
1177.39,1.39566,584320.0,23496
1180.98,1.40286,589396.0,23310
1184.58,1.41885,596143.0,22725
1188.16,1.42723,602955.0,22545
1191.75,1.45028,609704.0,21619
1195.33,1.47,617215.0,20914
1198.9,1.48002,624471.0,20677
1202.48,1.523,632472.0,18969
1206.04,1.54618,640381.0,18208
1209.61,1.57983,648161.0,17055
1214.35,1.58543,659999.0,17144
1217.9,1.56896,668609.0,18039
1221.45,1.54925,677405.0,19125
1224.99,1.512446,686281.0,21089
1228.53,1.48534,695317.0,22743
1232.07,1.450628,704063.0,24945
1235.6,1.435456,713007.0,26160
1239.13,1.41595,721330.0,27681
1242.65,1.408694,730030.0,28487
1246.17,1.39388,737591.0,29781
1250.85,1.38984,746809.0,30435
1254.36,1.38451,753336.0,31080
1257.86,1.37788,759907.0,31833
1261.36,1.37572,766538.0,32271
1264.86,1.37087,774802.0,32985
1268.35,1.37108,784025.0,33362
1271.83,1.37615,794336.0,33408
1275.32,1.366739,804198.0,34564
1278.79,1.36529,813836.0,35095
1282.27,1.36734,823595.0,35349
1286.89,1.366337,834533.0,35901
1290.36,1.36651,842581.0,36233
1293.81,1.362306,849301.0,36877
1297.27,1.36537,856026.0,36908
1300.72,1.36871,862498.0,36902
1304.17,1.366112,868068.0,37363
1307.61,1.36721,872869.0,37475
1311.05,1.35992,877616.0,38316
1314.48,1.368293,881872.0,37767
1317.91,1.36406,885520.0,38295
1322.47,1.36433,888917.0,38418
1325.89,1.36625,891687.0,38367
1329.31,1.36409,894001.0,38659
1332.72,1.36582,895438.0,38567
1336.12,1.36221,896641.0,38941
1339.52,1.366474,897974.0,38618
1342.92,1.36733,898777.0,38576
1346.31,1.36596,898783.0,38699
1349.7,1.36855,898350.0,38450
1353.09,1.37354,896784.0,37944
1357.59,1.37084,895293.0,38118
1360.97,1.38404,892755.0,36872
1364.34,1.38508,890430.0,36688
1367.7,1.39021,888504.0,36178
1371.06,1.39515,885825.0,35661
1374.42,1.40941,881046.0,34323
1377.77,1.41878,874030.0,33323
1381.12,1.43631,865751.0,31702
1384.47,1.45635,857799.0,29994
1387.81,1.47924,851759.0,28254
1392.25,1.51185,846500.0,26048
1395.58,1.50836,843622.0,26169
1398.91,1.49801,841228.0,26724
1402.23,1.48284,838489.0,27584
1405.55,1.48527,836065.0,27351
1408.86,1.49589,834396.0,26637
1412.17,1.510271,832187.0,25701
1415.47,1.5216,830123.0,24977
1418.77,1.5121,828244.0,25472
1422.07,1.51627,827314.0,25200
1426.45,1.51,826435.0,25539
1429.74,1.50738,825475.0,25664
1433.02,1.50718,824938.0,25659
1436.29,1.50596,823959.0,25701
1439.57,1.50099,823822.0,25992
1442.83,1.48307,823184.0,27066
1446.1,1.48429,821953.0,26950
1449.36,1.48129,821135.0,27110
1452.61,1.4654,819413.0,28061
1455.86,1.4637,817492.0,28105
1459.11,1.45364,814862.0,28671
1463.43,1.45235,811075.0,28623
1466.67,1.44664,807671.0,28880
1469.9,1.43977,803699.0,29196
1473.13,1.43535,799396.0,29337
1476.35,1.43166,795129.0,29429
1479.57,1.43016,790127.0,29345
1482.78,1.42732,784937.0,29344
1486,1.42165,779544.0,29525
1489.2,1.41395,773733.0,29829
1492.4,1.4167,767463.0,29401
1496.67,1.419559,758614.0,28871
1499.86,1.41293,751802.0,29052
1503.04,1.41122,744297.0,28875
1506.23,1.41071,735980.0,28586
1509.41,1.41376,728040.0,28080
1512.58,1.4156,719703.0,27641
1515.75,1.410745,710982.0,27613
1518.92,1.4028,702409.0,27784
1522.08,1.411835,693280.0,26858
1525.24,1.41804,683935.0,26120
1529.44,1.41787,671492.0,25655
1532.59,1.4191,661352.0,25196
1535.73,1.41806,650841.0,24855
1538.87,1.43106,640156.0,23726
1542,1.42881,629036.0,23435
1545.13,1.42654,617445.0,23124
1548.26,1.41375,605527.0,23355
1551.38,1.41125,594133.0,23048
1554.49,1.41697,582894.0,22316
1557.61,1.409766,571271.0,22237
1561.75,1.41328,555940.0,21466
1564.85,1.41014,544812.0,21189
1567.95,1.40764,533402.0,20865
1571.05,1.41436,521915.0,20102
1574.14,1.41781,510788.0,19518
1577.22,1.40302,499607.0,19752
1580.3,1.4072,487992.0,19108
1583.38,1.41098,476265.0,18487
1586.45,1.40674,464618.0,18212
1589.52,1.41082,452782.0,17582
1593.6,1.40985,436897.0,17003
1596.66,1.40261,425551.0,16840
1599.71,1.40413,414191.0,16333
1602.76,1.40844,402799.0,15727
1605.81,1.40519,391352.0,15395
1608.85,1.419671,380811.0,14489
1611.89,1.42031,370076.0,14060
1614.92,1.41662,359798.0,13786
1617.95,1.42242,349165.0,13201
1620.97,1.42154,338717.0,12832
1624.99,1.41265,325435.0,12584
1628.01,1.42718,315463.0,11797
1631.02,1.42506,305570.0,11483
1634.02,1.43431,295762.0,10880
1637.02,1.42092,286306.0,10862
1640.02,1.42614,276696.0,10372
1643.01,1.44425,267004.0,9600
1646,1.43816,257531.0,9390
1648.98,1.44704,247817.0,8853
1651.96,1.43403,238547.0,8781
1655.93,1.4497,225092.0,7992
1658.89,1.45999,214425.0,7435
1661.86,1.45053,202241.0,7167
1664.82,1.47894,188046.0,6242
1667.78,1.47078,171566.0,5803
1670.73,1.47676,154101.0,5141
1673.67,1.50262,134892.0,4240
1676.62,1.50695,115325.0,3589
1679.56,1.60017,97255.0,2442
1682.49,1.50391,81017.0,2539
1686.4,1.6522,63571.0,1416
1689.32,1.56573,53566.0,1456
1692.24,1.57949,45493.0,1198
1695.16,1.50747,39217.0,1219
1698.07,1.78437,33537.0,551
1700.97,1.761731,29118.0,504