File: Data/LDPE/LDPE11_Column 1_20211230_112404.csv
***Scan Config Information***,,,,,,,***Reference Scan Information***,,,,,,,,
Scan Config Name:,Column 1,,,,,,Scan Config Name:,Built-in Factory Reference,,,,,,
Scan Config Type:,Slew,Num Section:,1,,,,Scan Config Type:,Slew,Num Section:,1,,,,,
Section Config Type:,Column,,,,,,Section Config Type:,Column,,,,,,,
Start Wavelength (nm):,900,,,,,,Start Wavelength (nm):,900.0,,,,,,
End Wavelength (nm):,1700,,,,,,End Wavelength (nm):,1700.0,,,,,,
Pattern Width (nm):,7.03,,,,,,Pattern Width (nm):,7.03,,,,,,,
Exposure (ms):,0.635,,,,,,Exposure (ms):,0.635,,,,,,,
Digital Resolution:,228,,,,,,Digital Resolution:,228,,,,,,,
Num Repeats:,6,,,,,,Num Repeats:,30,,,,,,,
PGA Gain:,64,,,,,,PGA Gain:,64,,,,,,
System Temp (C):,22.35,,,,,,System Temp (C):,24.17,,,,,,,
Humidity (%):,40.83,,,,,,Humidity (%):,30.0,,,,,,
Battery Capacity (%):,61,,,,,,Lamp Intensity:,2449,,,,,,,
Lamp Intensity:,2481,,,,,,Data Date-Time:,19/12/12T12:44:54,,,,,,
Data Date-Time:,18/1/1T7:3:22,,,,,,,,,,,,,,
Total Measurement Time in sec:,4.429,,,,,,,,,,,,,
***General Information***,,,,,,,***Calibration Coefficients***,,,,,,,,
Model Name:,NIR-S-G1,,,,,,Shift Vector Coefficients:,-8.44101,0.0554567,-8.45244e-05,,,,,
Serial Number:,947R055,95UB122GC0A947R055,,,,,Pixel to Wavelength Coefficients:,1795.87,-0.92014,-0.00023961,,,,,
APP Version:,2.16.7,,,,,,,,,,,,,
TIVA Version:,2.4.4,,,,,,***Lamp Usage * **,,,,,,,,
UUID:,de:67:c:88:67:2c:2d:21,,,,,,Total Time(HH:MM:SS):,12min 30sec ,,,,,,,
Main Board Version:,D,,,,,,***Device/Error Status***,,,,,,,,
Detector Board Version:,B,,,,,,Device Status:,0x00000031,,,,,,
,,,,,,,Error status:,0x00000000,Error Code:,0x00000000000000000000000000000000,,,,,
,,,,,,,,,Error Details:,Not Found,,,,,
***Scan Data***,,,,,,,,,,,,,,,
Wavelength (nm),Absorbance (AU),Reference Signal (unitless),Sample Signal (unitless)
901.841,1.534627,99968.0,2919
905.754,1.49807,108993.0,3462
909.663,1.50016,118185.0,3736
913.568,1.50506,129285.0,4041
917.469,1.5282,143347.0,4248
921.365,1.57569,160437.0,4262
925.257,1.54356,180387.0,5160
929.144,1.55663,201426.0,5591
933.028,1.50861,220694.0,6842
936.906,1.56335,237501.0,6491
942.072,1.53105,256956.0,7565
945.94,1.5477,270636.0,7668
949.805,1.53513,283621.0,8272
953.665,1.52412,296982.0,8884
957.521,1.50205,310733.0,9780
961.373,1.52523,324587.0,9685
965.22,1.52127,339205.0,10214
969.063,1.52153,353669.0,10643
972.902,1.50236,368253.0,11582
976.736,1.52679,382531.0,11373
981.842,1.50801,399901.0,12415
985.666,1.52573,411528.0,12265
989.486,1.50981,422199.0,13053
993.302,1.53369,431172.0,12617
997.113,1.52782,438051.0,12993
1000.92,1.52505,444216.0,13260
1004.72,1.534047,449307.0,13137
1008.52,1.53561,453601.0,13215
1012.32,1.52498,456801.0,13638
1016.11,1.53239,459312.0,13481
1021.15,1.53481,461643.0,13474
1024.93,1.54682,463069.0,13147
1028.71,1.54379,463868.0,13262
1032.48,1.54385,464326.0,13273
1036.24,1.54483,466001.0,13291
1040.01,1.54499,466870.0,13311
1043.77,1.55251,467033.0,13087
1047.52,1.53854,467045.0,13515
1051.27,1.55073,467467.0,13153
1055.01,1.549556,467627.0,13193
1060,1.56458,468351.0,12764
1063.74,1.55524,469050.0,13061
1067.47,1.56764,469880.0,12716
1071.19,1.55351,471228.0,13174
1074.92,1.55659,472558.0,13118
1078.63,1.55654,474087.0,13162
1082.35,1.56693,476569.0,12918
1086.06,1.56536,479445.0,13043
1089.76,1.56982,481756.0,12972
1093.46,1.57093,485147.0,13030
1098.39,1.564758,489755.0,13342
1102.08,1.56343,493535.0,13486
1105.77,1.58122,497426.0,13047
1109.45,1.5795,501308.0,13201
1113.13,1.5721,505725.0,13546
1116.8,1.57984,509421.0,13404
1120.47,1.590155,513217.0,13187
1124.13,1.59256,517470.0,13223
1127.79,1.5811,521690.0,13687
1131.45,1.59722,526099.0,13300
1136.32,1.5876,531329.0,13733
1139.96,1.58785,535549.0,13834
1143.61,1.58841,539808.0,13926
1147.24,1.59712,543900.0,13753
1150.88,1.61535,547908.0,13285
1154.5,1.599652,552170.0,13881
1158.13,1.63087,556773.0,13026
1161.75,1.63094,561098.0,13125
1165.36,1.63963,565898.0,12975
1168.98,1.6386,571300.0,13130
1172.58,1.63644,576602.0,13318
1177.39,1.64968,584320.0,13091
1180.98,1.670623,589396.0,12583
1184.58,1.65927,596143.0,13064
1188.16,1.677474,602955.0,12671
1191.75,1.694473,609704.0,12321
1195.33,1.71104,617215.0,12006
1198.9,1.72106,624471.0,11870
1202.48,1.74004,632472.0,11508
1206.04,1.76147,640381.0,11091
1209.61,1.78258,648161.0,10693
1214.35,1.79621,659999.0,10552
1217.9,1.7966,668609.0,10680
1221.45,1.75559,677405.0,11892
1224.99,1.73675,686281.0,12582
1228.53,1.719967,695317.0,13250
1232.07,1.69225,704063.0,14301
1235.6,1.68236,713007.0,14816
1239.13,1.66415,721330.0,15631
1242.65,1.66532,730030.0,15777
1246.17,1.65919,737591.0,16167
1250.85,1.63801,746809.0,17187
1254.36,1.64207,753336.0,17176
1257.86,1.63984,759907.0,17415
1261.36,1.63668,766538.0,17695
1264.86,1.64213,774802.0,17663
1268.35,1.64259,784025.0,17854
1271.83,1.6322,794336.0,18527
1275.32,1.62849,804198.0,18918
1278.79,1.62937,813836.0,19106
1282.27,1.63831,823595.0,18941
1286.89,1.62742,834533.0,19680
1290.36,1.626584,842581.0,19908
1293.81,1.62931,849301.0,19941
1297.27,1.62888,856026.0,20119
1300.72,1.63367,862498.0,20049
1304.17,1.63035,868068.0,20333
1307.61,1.63288,872869.0,20327
1311.05,1.63393,877616.0,20388
1314.48,1.62858,881872.0,20741
1317.91,1.63228,885520.0,20650
1322.47,1.62491,888917.0,21084
1325.89,1.62671,891687.0,21062
1329.31,1.62656,894001.0,21124
1332.72,1.62335,895438.0,21315
1336.12,1.63081,896641.0,20980
1339.52,1.63256,897974.0,20927
1342.92,1.63538,898777.0,20810
1346.31,1.63146,898783.0,20999
1349.7,1.63572,898350.0,20784
1353.09,1.63827,896784.0,20626
1357.59,1.64317,895293.0,20361
1360.97,1.64866,892755.0,20048
1364.34,1.6455,890430.0,20142
1367.7,1.65481,888504.0,19672
1371.06,1.65943,885825.0,19405
1374.42,1.65886,881046.0,19326
1377.77,1.67574,874030.0,18441
1381.12,1.68661,865751.0,17815
1384.47,1.69813,857799.0,17189
1387.81,1.70529,851759.0,16789
1392.25,1.733807,846500.0,15625
1395.58,1.730968,843622.0,15674
1398.91,1.72984,841228.0,15670
1402.23,1.7177,838489.0,16062
1405.55,1.72098,836065.0,15895
1408.86,1.72931,834396.0,15562
1412.17,1.7311,832187.0,15457
1415.47,1.74213,830123.0,15032
1418.77,1.74486,828244.0,14904
1422.07,1.751181,827314.0,14672
1426.45,1.748505,826435.0,14747
1429.74,1.74606,825475.0,14813
1433.02,1.74399,824938.0,14874
1436.29,1.73017,823959.0,15337
1439.57,1.71751,823822.0,15788
1442.83,1.71626,823184.0,15821
1446.1,1.71828,821953.0,15724
1449.36,1.71171,821135.0,15948
1452.61,1.70415,819413.0,16194
1455.86,1.70891,817492.0,15980
1459.11,1.69812,814862.0,16329
1463.43,1.68809,811075.0,16633
1466.67,1.687048,807671.0,16603
1469.9,1.68679,803699.0,16531
1473.13,1.68538,799396.0,16496
1476.35,1.68788,795129.0,16314
1479.57,1.67247,790127.0,16797
1482.78,1.68653,784937.0,16155
1486,1.666428,779544.0,16804
1489.2,1.66914,773733.0,16575
1492.4,1.66532,767463.0,16586
1496.67,1.67174,758614.0,16154
1499.86,1.66456,751802.0,16276
1503.04,1.66087,744297.0,16251
1506.23,1.66386,735980.0,15959
1509.41,1.66207,728040.0,15852
1512.58,1.66314,719703.0,15632
1515.75,1.66668,710982.0,15317
1518.92,1.66738,702409.0,15108
1522.08,1.66723,693280.0,14917
1525.24,1.67326,683935.0,14513
1529.44,1.67313,671492.0,14253
1532.59,1.67069,661352.0,14117
1535.73,1.6559,650841.0,14374
1538.87,1.67033,640156.0,13676
1542,1.66834,629036.0,13500
1545.13,1.677491,617445.0,12975
1548.26,1.66709,605527.0,13033
1551.38,1.66885,594133.0,12736
1554.49,1.64292,582894.0,13264
1557.61,1.66297,571271.0,12413
1561.75,1.65572,555940.0,12283
1564.85,1.66004,544812.0,11918
1567.95,1.63839,533402.0,12265
1571.05,1.64293,521915.0,11876
1574.14,1.64206,510788.0,11646
1577.22,1.654128,499607.0,11079
1580.3,1.66151,487992.0,10639
1583.38,1.66704,476265.0,10252
1586.45,1.64232,464618.0,10587
1589.52,1.64955,452782.0,10147
1593.6,1.63666,436897.0,10086
1596.66,1.65435,425551.0,9432
1599.71,1.64755,414191.0,9325
1602.76,1.6557,402799.0,8900
1605.81,1.665608,391352.0,8452
1608.85,1.65736,380811.0,8382
1611.89,1.64324,370076.0,8415
1614.92,1.61764,359798.0,8678
1617.95,1.63767,349165.0,8042
1620.97,1.64335,338717.0,7700
1624.99,1.65713,325435.0,7167
1628.01,1.65199,315463.0,7030
1631.02,1.66841,305570.0,6557
1634.02,1.66892,295762.0,6339
1637.02,1.672,286306.0,6093
1640.02,1.657671,276696.0,6086
1643.01,1.68552,267004.0,5508
1646,1.65955,257531.0,5640
1648.98,1.660693,247817.0,5413
1651.96,1.67377,238547.0,5056
1655.93,1.70664,225092.0,4423
1658.89,1.64814,214425.0,4821
1661.86,1.66202,202241.0,4404
1664.82,1.6413,188046.0,4295
1667.78,1.67273,171566.0,3645
1670.73,1.74611,154101.0,2765
1673.67,1.65388,134892.0,2993
1676.62,1.68736,115325.0,2369
1679.56,1.623361,97255.0,2315
1682.49,1.68586,81017.0,1670
1686.4,1.757545,63571.0,1111
1689.32,2.032533,53566.0,497
1692.24,1.6134,45493.0,1108
1695.16,2.03477,39217.0,362
1698.07,1.99532,33537.0,339
1700.97,NaN,29118.0,-101